ecc_500,,ecc_510,,ecc_520,,ecc_490,,ecc_530,,ecc_526,,ecc_480,,ecc_470,,ecc_515,,ecc_460,,
Wavelength (nm),Intensity (a.u.),Wavelength (nm),Intensity (a.u.),Wavelength (nm),Intensity (a.u.),Wavelength (nm),Intensity (a.u.),Wavelength (nm),Intensity (a.u.),Wavelength (nm),Intensity (a.u.),Wavelength (nm),Intensity (a.u.),Wavelength (nm),Intensity (a.u.),Wavelength (nm),Intensity (a.u.),Wavelength (nm),Intensity (a.u.),
504.9200134,2.618924379,514.9199829,10.42391014,525,69.88208008,495,2.332310915,534.9199829,312.468689,530.8900146,193.7303162,485,3.363497257,475,2.881419659,520,27.23195076,465,3.064388752,
505.9700012,2.041665792,515.9699707,11.70786476,526.0599976,81.97631073,496.0599976,1.188609123,535.9699707,349.7686768,531.9400024,220.4419861,486.0599976,1.611427426,476.0599976,1.330202222,521.0599976,31.87967491,466.0599976,1.16123116,
506.8599854,1.892688036,516.8599854,13.37155056,526.960022,94.65168762,496.9599915,0.638165772,536.8599854,383.786499,532.8300171,249.3002472,486.9599915,0.8222454786,476.9599915,0.5474421382,521.960022,37.30102921,466.9599915,0.5318956375,
507.9100037,2.002090216,517.9099731,15.8306036,528.0300293,112.181076,498.0299988,0.5178837776,537.9099731,431.100647,533.8800049,283.8617554,488.0299988,0.3719222248,478.0299988,0.2549801767,523.0300293,44.22311783,468.0299988,0.1720755398,
508.9500122,2.411494255,518.9500122,18.87012291,528.9299927,129.86203,498.9299927,0.5279549956,538.9500122,486.1650391,534.9199829,323.6374512,488.9299927,0.2521680892,478.9299927,0.1585712135,523.9299927,51.65788651,468.9299927,0.116003938,
509.8500061,2.721791506,519.8499756,22.12037468,530,152.1572876,500,0.5803512335,539.8499756,520.425354,535.8200073,356.7828674,490,0.2328558266,480,0.1138428673,525,60.73954773,470,0.05962369591,
510.8900146,3.270323277,520.9000244,26.8007431,531.039978,175.7038269,501.0400085,0.6248301268,540.8900146,571.3145752,536.8599854,399.8652039,491.0599976,0.2380909324,481.0599976,0.09682703763,526.0599976,72.36907959,471.0599976,0.1343661845,
511.9400024,3.983738661,521.960022,31.71857834,531.9400024,196.4115906,501.9400024,0.6988115907,541.9400024,617.8147583,537.9099731,448.8494873,491.9599915,0.272229135,481.9599915,0.1306800544,526.960022,84.08340454,471.9599915,0.05432617664,
512.9799805,4.70170927,522.8699951,36.81001282,532.9799805,226.9021759,502.980011,0.8288906217,542.8300171,651.2585449,538.9500122,502.3036499,493.0299988,0.2766565084,483.0299988,0.1383148134,528.0300293,99.64831543,473.0299988,0.08859404176,
513.8800049,5.466646194,523.9299927,44.25873566,534.0200195,258.5802917,504.019989,0.9868423343,543.8800049,702.2926025,539.8499756,539.6773071,493.9299927,0.2802352607,483.9299927,0.1769583225,528.9299927,114.7174759,473.9299927,0.09173563868,
514.9199829,6.698718071,524.8400269,50.87341309,535.0700073,292.3877869,505.0700073,1.10026741,544.9199829,745.322876,540.8900146,599.4476318,495,0.2843117416,485,0.1097671166,530,134.6642151,475,0.05647303909,
515.9699707,8.159357071,525.9000244,60.58631897,535.9699707,324.5885315,505.9700012,1.222488999,545.9699707,781.8476563,541.9400024,644.9605103,496.0599976,0.293014437,486.0599976,0.1441375911,531.039978,153.7034454,476.0599976,0.07887554169,
516.8599854,9.516417503,526.960022,71.9131012,537.0100098,364.9853821,507.0100098,1.420973539,546.8599854,814.9949951,542.8300171,680.8282471,496.9599915,0.3447149992,486.9599915,0.1428968012,531.9400024,172.5239868,476.9599915,0.06932964921,
517.9099731,11.43165016,527.8699951,82.65077972,538.0499878,407.2513733,508.0499878,1.695317864,547.9099731,842.3327026,543.8800049,729.7045288,498.0299988,0.3723503351,488.0299988,0.1656454802,532.9799805,199.4319611,478.0299988,0.06016623974,
518.9500122,13.712924,528.9299927,97.73405457,538.9500122,445.0387268,508.9500122,1.988400698,548.9500122,870.7862549,544.9199829,774.8724976,498.9299927,0.3561737835,488.9299927,0.1191526875,534.0200195,228.2503967,478.9299927,0.03569468111,
519.8499756,16.00746155,529.8400269,110.5481873,540,492.3410339,510,2.400936365,549.8499756,891.2359619,545.8200073,808.0966797,500,0.4134438336,490,0.1042482033,535.0700073,257.0368042,480,0.06318766624,
520.9000244,19.16175079,530.8900146,126.7271652,541.039978,538.0903931,511.0400085,2.846113443,550.8800049,902.5232544,546.8599854,843.163208,501.0400085,0.5244037509,491.0599976,0.1582097709,535.9699707,285.4060364,481.0599976,0.07960077375,
521.960022,22.92945862,531.9400024,146.1288452,541.9400024,574.3843384,511.9400024,3.339861631,551.9099731,906.9412842,547.9099731,878.2678833,501.9400024,0.6162804961,491.9599915,0.1332797408,537.0100098,315.4160461,481.9599915,0.08700931817,
522.8699951,26.64480972,532.8300171,166.5952911,542.9799805,617.0184326,512.9799805,3.98426795,552.9400024,923.7803345,548.9500122,900.1642456,502.980011,0.6536300778,493.0299988,0.1537774205,538.0499878,358.5726318,483.0299988,0.06582290679,
523.9299927,31.79642105,533.8800049,190.6155548,544.0200195,662.9672241,514.0200195,4.839896679,553.9699707,925.4731445,549.8499756,924.546875,504.019989,0.7419484258,493.9299927,0.1582061052,538.9500122,393.4013672,483.9299927,0.06666249782,
524.8400269,36.35656357,534.9199829,214.9717102,545.0700073,697.6890869,515.0700073,5.793671131,554.8499756,918.7044067,550.8800049,944.491272,505.0700073,0.8259856701,495,0.2110320926,540,432.5484009,485,0.06484146416,
525.9000244,43.49135971,535.9699707,243.8355103,545.9699707,731.8504028,515.9699707,6.902313232,555.8800049,920.50354,551.9099731,952.9546509,505.9700012,0.9666203856,496.0599976,0.1926065385,541.039978,473.1512146,486.0599976,0.08931320161,
526.960022,51.60934067,536.8599854,267.3799133,547.0100098,762.2119141,517.0100098,8.254320145,556.9099731,907.6309814,552.9400024,960.6376953,507.0100098,1.101223946,496.9599915,0.218652904,541.9400024,506.0211792,486.9599915,0.08436167985,
527.8699951,59.00259781,537.9099731,299.0047607,548.0499878,793.6342163,518.0499878,9.963531494,557.9400024,893.3116455,553.8200073,959.7807617,508.0499878,1.261948586,498.0299988,0.2448978722,542.9799805,542.7998047,488.0299988,0.09661827236,
528.9299927,70.10047913,538.9500122,334.888031,548.9500122,809.9586792,518.9500122,11.59098625,558.9699707,878.185791,554.8499756,962.6372681,508.9500122,1.509027839,498.9299927,0.2292483449,544.0200195,576.3967285,488.9299927,0.1010184959,
529.8400269,79.71113586,539.8499756,362.2497253,550,833.2736206,520,13.73067379,559.8499756,864.3197632,555.8800049,942.9503174,510,1.767753959,500,0.2091016769,545.0700073,611.7510376,490,0.09054964036,
530.8900146,91.75255585,540.8900146,398.4926453,551.0200195,845.578125,521.0599976,16.62880516,560.8900146,840.2373657,556.9099731,943.3901367,511.0400085,2.088243961,501.0400085,0.3304774463,545.9699707,638.6378174,491.0599976,0.1001990363,
531.9400024,105.1505203,541.9400024,429.283905,552.0499878,860.9369507,521.960022,19.59274101,561.9400024,825.5317993,557.9400024,923.8614502,511.9400024,2.426470757,501.9400024,0.3383852839,547.0100098,669.6485596,491.9599915,0.1437983215,
532.9799805,121.9842072,542.8300171,453.4517822,552.9400024,861.616272,523.0300293,23.37090302,562.8300171,809.5563965,558.8200073,913.128479,512.9799805,2.881822824,502.980011,0.4031520486,548.0499878,694.1136475,493.0299988,0.1262685359,
533.8800049,136.5154419,543.8800049,487.8848877,553.9699707,864.690918,523.9299927,27.20735931,563.8800049,775.8690186,559.8499756,894.5148315,514.0200195,3.5629251,504.019989,0.4789791405,548.9500122,712.8778687,493.9299927,0.1196162775,
534.9199829,154.9165955,544.9199829,516.5307007,555,859.8903809,525,32.03129578,564.9199829,755.0369873,560.8900146,877.90448,515.0700073,4.219836235,505.0700073,0.5090010762,550,727.3253174,495,0.1312369406,
535.9699707,175.6979065,545.9699707,543.9727783,556.0200195,854.7355347,526.0599976,37.87366104,565.9699707,730.1937256,561.9400024,845.6922607,515.9699707,5.05582428,505.9700012,0.5588467121,551.0200195,746.2452393,496.0599976,0.1551762819,
536.8599854,192.7740326,546.8599854,565.0215454,557.0499878,842.9664307,526.960022,43.98567963,566.8599854,703.0777588,562.8300171,824.6146851,517.0100098,5.972622871,507.0100098,0.6959933043,552.0499878,753.7400513,496.9599915,0.1457220018,
537.9099731,216.5783691,547.9099731,587.8148804,557.9400024,833.5289307,528.0300293,52.1958046,567.9099731,680.440979,563.8800049,798.5111084,518.0499878,7.234622478,508.0499878,0.8575704098,552.9400024,757.6525879,498.0299988,0.1193559244,
538.9500122,241.7842407,548.9500122,601.4597168,558.9699707,815.7261963,528.9299927,59.87273026,568.9500122,651.0871582,564.9199829,775.1435547,518.9500122,8.425102234,508.9500122,0.9194939137,553.9699707,760.2438965,498.9299927,0.1870864034,
539.8499756,260.7874756,549.8499756,610.166748,560,800.3552856,530,69.62569427,569.8499756,628.8306885,565.8200073,747.1112061,520,10.00616074,510,1.095148325,555,752.954834,500,0.1857511401,
540.8900146,286.700531,550.8800049,623.355957,561.039978,785.1968994,531.039978,80.64430237,570.8800049,604.1173096,566.8599854,724.9516602,521.0599976,11.99116707,511.0400085,1.278512836,556.0200195,749.9708862,501.0400085,0.2281358838,
541.9400024,308.5603638,551.9099731,637.3255615,561.9400024,764.0966797,531.9400024,90.18152618,571.9099731,580.9659424,567.9099731,702.4703979,521.960022,13.99915981,511.9400024,1.418209553,557.0499878,735.7151489,501.9400024,0.2450635731,
542.9799805,331.4858093,552.9400024,641.7216797,562.9799805,738.3129272,532.9799805,104.2039337,572.9400024,556.8654785,568.9500122,678.7151489,523.0300293,16.71150398,512.9799805,1.783660531,557.9400024,728.9556885,502.980011,0.2970148027,
543.8800049,350.7029724,553.9699707,641.2481689,564.0200195,712.7919922,534.0200195,118.4947586,573.9699707,532.3956909,569.8499756,644.0340576,523.9299927,19.61439133,514.0200195,2.181108236,558.9699707,719.0574951,504.019989,0.3048965037,
544.9199829,375.9200134,554.8499756,636.6528931,565.0700073,691.3128052,535.0700073,134.5846405,574.8499756,522.0968018,570.8800049,624.2225952,525,23.01467705,515.0700073,2.499821663,560,700.8946533,505.0700073,0.360209614,
545.9699707,393.154541,555.8800049,633.0603027,565.9699707,666.0366211,535.9699707,149.6323853,575.8800049,497.4173279,571.9099731,601.6003418,526.0599976,27.07399178,515.9699707,3.104620457,561.039978,681.2695923,505.9700012,0.4251434207,
546.8599854,406.1594543,556.9099731,626.2044678,567.0100098,643.5430298,537.0100098,166.8806458,576.9099731,472.9235229,572.9400024,574.8505859,526.960022,31.64294434,517.0100098,3.529498339,561.9400024,667.6300659,507.0100098,0.4349323511,
547.9099731,423.2806396,557.9400024,614.3547363,568.0499878,618.0852051,538.0499878,185.884201,577.9400024,453.9366455,573.8200073,558.6605225,528.0300293,37.22910309,518.0499878,4.231296539,562.9799805,640.5944214,508.0499878,0.4980722368,
548.9500122,435.0644531,558.9699707,603.2878418,568.9500122,601.7712402,538.9500122,205.1510773,578.9699707,438.0123291,574.8499756,532.3294067,528.9299927,42.58980179,518.9500122,4.922149658,564.0200195,626.2283936,508.9500122,0.5949699283,
549.8499756,445.4477844,559.8499756,594.9579468,570,569.0640259,540,224.989975,579.8499756,422.3826294,575.8800049,510.1716919,530,49.90079117,520,5.883568287,565.0700073,604.6964722,510,0.7275784612,
550.8800049,456.7581177,560.8900146,584.046814,571.0200195,551.5678101,541.039978,245.4384766,580.8900146,405.8335266,576.9099731,483.4309692,531.039978,57.43571854,521.0599976,7.09718132,565.9699707,585.9052734,511.0400085,0.8523829579,
551.9099731,461.6950073,561.9400024,561.9238892,572.0499878,528.7954712,541.9400024,263.5476379,581.9400024,390.1027527,577.9400024,472.3078613,531.9400024,64.42646027,521.960022,8.33336544,567.0100098,564.3516846,511.9400024,0.9768007398,
552.9400024,465.7581177,562.8300171,554.7774658,572.9400024,513.0059204,542.9799805,281.0562439,582.8300171,375.4686584,578.8200073,453.4716187,532.9799805,74.2957077,523.0300293,9.773489952,568.0499878,547.6793213,512.9799805,1.217182755,
553.9699707,466.1011658,563.8800049,537.3637085,573.9699707,490.3713074,544.0200195,299.4879761,583.8800049,363.7658081,579.8499756,429.7447815,534.0200195,84.94413757,523.9299927,11.53364372,568.9500122,529.4279785,514.0200195,1.405925989,
554.8499756,465.6130371,564.9199829,517.8921509,575,471.7174988,545.0700073,320.0058899,584.9199829,350.0805664,580.8900146,418.1164551,535.0700073,96.23936462,525,13.30147076,570,504.8265991,515.0700073,1.729768276,
555.8800049,459.6022949,565.9699707,497.912323,576.0200195,451.5760803,545.9699707,332.0460205,585.9699707,339.8419189,581.9400024,404.2922974,535.9699707,106.5832291,526.0599976,15.95142746,571.0200195,484.4042053,515.9699707,2.015375614,
556.9099731,452.4885254,566.8599854,479.5978088,577.0499878,432.6352844,547.0100098,348.5868835,586.8599854,330.7607422,582.8300171,393.8753357,537.0100098,119.5601501,526.960022,18.52019501,572.0499878,466.2350464,517.0100098,2.41528964,
557.9400024,449.3226624,567.9099731,462.9144287,577.9400024,417.9219666,548.0499878,362.0628662,587.9099731,318.3877563,583.8800049,375.5802917,538.0499878,133.9664001,528.0300293,21.82366753,572.9400024,449.0765076,518.0499878,2.893283367,
558.9699707,438.3555908,568.9500122,444.5957947,578.9699707,402.4597778,548.9500122,371.1725464,588.9500122,311.9314575,584.9199829,366.2913818,538.9500122,145.3417358,528.9299927,24.75304031,573.9699707,428.4996948,518.9500122,3.332281351,
559.8499756,424.989502,569.8499756,428.9875183,580,386.8437805,550,380.3873901,589.8499756,301.368866,585.8200073,351.5537415,540,161.2761841,530,28.99249077,575,411.5160522,520,4.003455639,
560.8900146,418.6437683,570.8800049,412.5279236,581.039978,371.0516968,551.0200195,385.3371887,590.8800049,291.1596985,586.8599854,339.8079834,541.039978,173.8537598,531.039978,33.31372452,576.0200195,397.6657104,521.0599976,4.868405342,
561.9400024,410.1877441,571.9099731,394.7350464,581.9400024,359.4851379,552.0499878,388.082489,591.9099731,281.0883484,587.9099731,329.1902466,541.9400024,188.8995056,531.9400024,37.67105865,577.0499878,379.7954712,521.960022,5.61127615,
562.9799805,398.565094,572.9400024,380.7039185,582.9799805,345.920929,552.9400024,394.6360168,592.9400024,271.6261597,588.9500122,317.9587402,542.9799805,201.5939178,532.9799805,43.77284622,577.9400024,367.0801697,523.0300293,6.635433197,
563.8800049,385.1238708,573.9699707,363.9967957,584.0200195,331.4943542,553.9699707,393.7569885,593.9699707,264.3225708,589.8499756,308.7299194,544.0200195,215.5379028,534.0200195,49.21084976,578.9699707,351.5620728,523.9299927,7.665602207,
564.9199829,371.9637756,574.8499756,352.2028809,585.0700073,321.5575562,555,390.9333496,594.8499756,256.0290527,590.8800049,297.9687805,545.0700073,227.3169556,535.0700073,56.03234863,580,334.5973511,525,9.063200951,
565.9699707,361.0798645,575.8800049,340.2642212,585.9699707,313.3941956,556.0200195,387.7781677,595.8800049,247.4256439,591.9099731,288.63797,545.9699707,239.0685425,535.9699707,62.70913696,581.039978,323.2377014,526.0599976,10.66572666,
566.8599854,352.9320068,576.9099731,327.1155701,587.0100098,305.2489014,557.0499878,383.6445313,596.9099731,239.2675171,592.9400024,279.5682678,547.0100098,250.3530273,537.0100098,69.01235962,581.9400024,313.2484436,526.960022,12.43150711,
567.9099731,337.4279785,577.9400024,311.2019958,588.0499878,291.5029602,557.9400024,374.3804626,597.9400024,231.7962799,593.8200073,273.1921082,548.0499878,258.5305176,538.0499878,77.14654541,582.9799805,300.8444824,528.0300293,14.58969307,
568.9500122,323.8873596,578.9699707,298.6252441,588.9500122,283.7097168,558.9699707,373.1516113,598.9699707,225.5810394,594.8499756,264.7936096,548.9500122,264.2659912,538.9500122,85.06689453,584.0200195,290.1802063,528.9299927,16.82205582,
569.8499756,308.7107849,579.8499756,289.6140747,590,275.2905579,560,363.6901855,599.8499756,220.4818115,595.8800049,255.5449829,550,272.4316406,540,94.09698486,585.0700073,280.7303467,530,19.74359512,
570.8800049,297.0688782,580.8900146,277.1899719,591.0200195,264.2875366,561.039978,356.3575745,600.8599854,212.2075958,596.9099731,246.7983398,551.0200195,275.8547058,541.039978,102.3801041,585.9699707,274.0967407,531.039978,22.56755829,
571.9099731,286.7872925,581.9400024,267.1719666,592.0499878,259.4404907,561.9400024,350.638092,601.8800049,203.4882507,597.9400024,240.9766998,552.0499878,278.4258728,541.9400024,109.6413116,587.0100098,264.5560608,531.9400024,25.35695648,
572.9400024,275.8216553,582.8300171,257.1767578,592.9400024,250.6675415,562.9799805,338.9208679,602.8900146,197.8117371,598.8200073,234.0639801,552.9400024,278.3024902,542.9799805,117.2471771,588.0499878,254.1576538,532.9799805,29.27472496,
573.9699707,262.9064331,583.8800049,248.8115845,593.9699707,244.7250061,564.0200195,328.5801392,603.9099731,189.6520538,599.8499756,224.3018951,553.9699707,280.3466187,544.0200195,125.4149551,588.9500122,247.4506989,534.0200195,33.31087112,
574.8499756,255.0672913,584.9199829,237.9996643,595,235.3744354,565.0700073,316.6933594,604.9199829,183.6845093,600.8599854,215.8857727,555,278.6312866,545.0700073,132.3049316,590,238.7933807,535.0700073,37.51296234,
575.8800049,243.8267212,585.9699707,232.9217224,596.0200195,228.0092926,565.9699707,306.677002,605.9400024,175.2264709,601.8800049,210.9850006,556.0200195,278.8034973,545.9699707,139.330368,591.0200195,231.7562256,535.9699707,41.72336197,
576.9099731,233.4629974,586.8599854,226.0025635,597.0499878,219.221756,567.0100098,295.2120361,606.9500122,169.1192017,602.8900146,204.6010742,557.0499878,273.6218567,547.0100098,145.7593536,592.0499878,224.8904266,537.0100098,46.83465195,
577.9400024,224.3138885,587.9099731,217.7649536,597.9400024,213.1394653,568.0499878,282.952179,607.9699707,164.9524841,603.9099731,195.4967346,557.9400024,269.2398987,548.0499878,151.0398254,592.9400024,219.0109558,538.0499878,52.08346558,
578.9699707,214.2552643,588.9500122,210.0246582,598.9699707,206.8020782,568.9500122,274.544281,608.8400269,158.7213593,604.9199829,188.3313446,558.9699707,264.8751831,548.9500122,153.9459686,593.9699707,211.3579254,538.9500122,57.68000793,
579.8499756,208.8055115,589.8499756,205.4376373,600,200.1925507,570,263.5141907,609.8499756,151.1614685,605.9400024,182.0238953,560,257.9291687,550,157.4534607,595,204.4416962,540,63.35485077,
580.8900146,200.8693848,590.8800049,197.1858978,601.0100098,193.2383575,571.0200195,251.6227264,610.8800049,146.1573334,606.9500122,175.0644684,561.039978,252.486908,551.0200195,161.1397095,596.0200195,197.8522797,541.039978,68.57030487,
581.9400024,191.1858063,591.9099731,190.3538666,602.0200195,187.3979645,572.0499878,243.0694275,611.9099731,140.3109894,607.8200073,169.0920258,561.9400024,246.887146,552.0499878,162.9484711,597.0499878,192.0259552,541.9400024,73.60108948,
582.9799805,183.5118561,592.9400024,184.3252411,603.039978,180.6079559,572.9400024,235.0206604,612.9400024,133.9241638,608.8400269,163.3401031,562.9799805,240.4385681,552.9400024,164.448761,597.9400024,185.1506195,542.9799805,78.67364502,
583.8800049,177.5964203,593.9699707,178.7460632,604.0499878,172.940033,573.9699707,225.6996002,613.9699707,127.9258881,609.8499756,156.1548615,564.0200195,233.7978516,553.9699707,163.6641235,598.9699707,180.9352875,544.0200195,83.86423492,
584.9199829,172.9570618,594.8499756,175.3491821,605.0700073,168.0814362,575,216.1684875,614.8499756,125.6576385,610.8800049,149.7272949,565.0700073,223.9571991,555,162.8305206,600,172.7284241,545.0700073,89.55032349,
585.9699707,166.0102997,595.8800049,168.3448486,605.9400024,161.8004913,576.0200195,207.4042511,615.8800049,120.4456558,611.9099731,144.3530579,565.9699707,216.9286346,556.0200195,161.4602356,601.0100098,168.5866699,545.9699707,92.95043945,
586.8599854,160.935791,596.9099731,163.0422821,606.9500122,157.1966095,577.0499878,198.7810516,616.9099731,113.7122116,612.9400024,139.0499268,567.0100098,209.4003754,557.0499878,159.1039124,602.0200195,162.794754,547.0100098,97.96268463,
587.9099731,156.4940186,597.9400024,158.3446198,607.9699707,149.9162903,577.9400024,191.6950378,617.9400024,108.3939667,613.8200073,134.0164948,568.0499878,200.3302917,557.9400024,157.2139282,603.039978,157.4874725,548.0499878,102.009613,
588.9500122,152.093811,598.9699707,152.9006653,608.9799805,143.4489746,578.9699707,184.0301514,618.9699707,104.2635193,614.8499756,128.3741608,568.9500122,193.9920807,558.9699707,153.9079132,604.0499878,150.0648499,548.9500122,103.8859634,
589.8499756,147.41539,599.8499756,149.8000336,610,137.4381104,580,176.2714691,619.8499756,100.1408005,615.8800049,122.459465,570,187.2531433,560,150.7367859,605.0700073,146.9096832,550,106.4883881,
590.8800049,141.9650421,600.8599854,143.762146,611.0200195,132.0575256,581.039978,169.7250214,620.8800049,95.68327332,616.9099731,117.9374542,571.0200195,179.6378784,561.039978,145.8996582,605.9400024,140.1044159,551.0200195,107.9309311,
591.9099731,137.8981323,601.8800049,138.6780701,612.0499878,126.6017914,581.9400024,165.720459,621.9099731,92.21858978,617.9400024,112.5095673,572.0499878,173.2350616,561.9400024,143.5654144,606.9500122,136.4959564,552.0499878,108.8464737,
592.9400024,133.5304565,602.8900146,132.9613495,612.9400024,122.1824112,582.9799805,157.2751923,622.9400024,87.38425446,618.8200073,108.4996185,572.9400024,167.0127106,562.9799805,139.2897797,607.9699707,130.9220123,552.9400024,110.3458939,
593.9699707,130.2415619,603.9099731,127.9753036,613.9699707,117.3558121,584.0200195,151.8108368,623.9699707,82.75721741,619.8499756,103.3525162,573.9699707,160.3985748,564.0200195,134.7380981,608.9799805,125.2692413,553.9699707,110.76577,
594.8499756,125.2651367,604.9199829,124.6862183,615,112.1084442,585.0700073,147.4654846,624.8499756,79.76587677,620.8800049,99.11236572,575,152.3040314,565.0700073,129.600708,610,120.9555893,555,109.3245544,
595.8800049,122.0075073,605.9400024,119.1539917,616.0200195,107.6799774,585.9699707,143.563858,625.8800049,75.98848724,621.9099731,94.6941452,576.0200195,146.2403564,565.9699707,125.9556274,611.0200195,116.180069,556.0200195,108.2091904,
596.9099731,117.355484,606.9500122,115.514122,617.0499878,103.7148819,587.0100098,139.1328278,626.9099731,72.70353699,622.9400024,90.22557831,577.0499878,139.8755188,567.0100098,120.6816177,612.0499878,110.5999374,557.0499878,107.2845917,
597.9400024,113.378006,607.9699707,110.6626053,617.9400024,98.68650055,588.0499878,133.233551,627.9400024,69.16481018,623.8200073,86.72236633,577.9400024,136.1126404,568.0499878,116.9004745,612.9400024,107.7966003,557.9400024,105.620224,
598.9699707,110.242012,608.8400269,107.6656265,618.9699707,94.8764801,588.9500122,129.5196533,628.9699707,65.87247467,624.8499756,82.7972641,578.9699707,129.1704102,568.9500122,113.5483246,613.9699707,102.0794983,558.9699707,103.1814117,
599.8499756,108.0467148,609.8499756,102.1528473,620,91.26187897,590,124.6928024,629.8499756,63.09287262,625.8800049,78.58261108,580,124.1211624,570,108.9294128,615,96.94338989,560,101.2861252,
600.8599854,103.6621857,610.8800049,98.75867462,621.0200195,86.66814423,591.0200195,120.8739471,630.8599854,60.73945999,626.9099731,74.89601135,581.039978,119.3176193,571.0200195,104.3234863,616.0200195,94.11478424,561.039978,98.7829895,
601.8800049,100.3388596,611.9099731,95.17448425,622.0499878,82.68540955,592.0499878,117.1998901,631.8800049,57.65810776,627.9400024,71.70124054,581.9400024,115.2167206,572.0499878,100.3969421,617.0499878,89.93273926,561.9400024,95.91885376,
602.8900146,96.60292816,612.9400024,91.19596863,622.9400024,79.86600494,592.9400024,113.6272125,632.8900146,54.75426865,628.8200073,68.6674881,582.9799805,111.5694504,572.9400024,96.69189453,617.9400024,86.32797241,562.9799805,93.77980042,
603.9099731,92.64972687,613.9699707,87.32073212,623.9699707,75.63805389,593.9699707,110.3889389,633.9099731,51.98319626,629.8499756,65.50456238,584.0200195,107.2304916,573.9699707,92.3873291,618.9699707,82.39405823,564.0200195,90.52902985,
604.9199829,88.79404449,614.8499756,84.00786591,625,73.20243073,595,106.9268951,634.9199829,50.33765411,630.8599854,62.10545349,585.0700073,104.0468979,575,88.52677917,620,78.67277527,565.0700073,87.39202881,
605.9400024,85.77116394,615.8800049,80.20065308,626.0200195,69.2564621,596.0200195,103.7219086,635.9400024,47.95765305,631.8800049,58.28421783,585.9699707,100.7236099,576.0200195,85.39595032,621.0200195,75.51961517,565.9699707,85.45674896,
606.9500122,82.45809937,616.9099731,76.31450653,627.0499878,65.38375092,597.0499878,100.0594711,636.9500122,46.26348495,632.8900146,56.55533981,587.0100098,97.4197464,577.0499878,80.90315247,622.0499878,72.62917328,567.0100098,81.45044708,
607.9699707,79.93798828,617.9400024,73.40923309,627.9400024,63.49802017,597.9400024,97.17967987,637.9699707,43.70521927,633.9099731,53.93562317,588.0499878,93.69133759,577.9400024,79.34210205,622.9400024,69.56438446,568.0499878,79.48950195,
608.9799805,77.15279388,618.9699707,69.88554382,628.9699707,60.75379181,598.9699707,94.0187149,638.8400269,41.90206528,634.9199829,51.75120926,588.9500122,91.28066254,578.9699707,76.08708191,623.9699707,66.44244385,568.9500122,76.01660156,
609.8499756,73.59098053,619.8499756,66.99698639,630,57.26198959,600,91.13191223,639.8499756,40.22032166,635.9400024,49.52284622,590,87.68273163,580,72.98661804,625,63.00006104,570,73.20259857,
610.8800049,71.95155334,620.8800049,64.95417786,631.0100098,54.73178101,601.0100098,88.46587372,640.8599854,38.30644226,636.9500122,47.09780502,591.0200195,85.35746765,581.039978,69.7286377,626.0200195,60.03660583,571.0200195,69.75561523,
611.9099731,68.32643127,621.9099731,61.50270844,632.0200195,51.80179596,602.0200195,84.86429596,641.8800049,36.56735992,637.8200073,45.38451385,592.0499878,82.78186035,581.9400024,67.36805725,627.0499878,57.95995712,572.0499878,67.24983978,
612.9400024,65.8879776,622.9400024,58.29935837,633.039978,49.760849,603.039978,81.89009857,642.8900146,35.29782486,638.8400269,42.96278763,592.9400024,80.25733185,582.9799805,64.69364166,627.9400024,55.63645172,572.9400024,64.87993622,
613.9699707,63.03518295,623.9699707,56.44616318,634.0499878,47.3049469,604.0499878,79.41804504,643.9099731,33.41743088,639.8499756,41.14221573,593.9699707,77.8925705,584.0200195,62.23778534,628.9699707,52.57881546,573.9699707,62.47988892,
614.8499756,60.6117363,624.8499756,54.33666611,635.0700073,44.93616867,605.0700073,76.13975525,644.9199829,31.97809601,640.8599854,39.57410812,595,75.30045319,585.0700073,60.25259018,630,50.10496521,575,60.17625427,
615.8800049,58.5620079,625.8800049,51.47278976,635.9400024,43.52281189,605.9400024,73.66248322,645.9400024,30.73239899,641.8800049,37.62984848,596.0200195,73.06178284,585.9699707,58.79391861,631.0100098,47.61275864,576.0200195,57.44968033,
616.9099731,55.09820938,626.9099731,49.22197723,636.9500122,41.52721024,606.9500122,71.65631104,646.9500122,29.64448738,642.8900146,35.43042374,597.0499878,70.37457275,587.0100098,56.36915588,632.0200195,45.53334045,577.0499878,55.20084763,
617.9400024,53.19101334,627.9400024,46.61003494,637.9699707,39.71264648,607.9699707,68.75414276,647.9699707,28.23792648,643.9099731,34.55860901,597.9400024,68.31861877,588.0499878,55.288311,633.039978,43.36440277,577.9400024,52.98634338,
618.9699707,50.6252327,628.9699707,44.85165024,638.9799805,37.76352692,608.9799805,66.07255554,648.8400269,27.38176727,644.9199829,32.91003418,598.9699707,66.53543854,588.9500122,53.1785202,634.0499878,41.11168289,578.9699707,50.39306259,
619.8499756,48.5826416,629.8499756,42.77841949,640,36.91130829,610,63.19790268,649.8499756,26.16168785,645.9400024,31.56131554,600,63.7829361,590,51.81155396,635.0700073,39.54408264,580,48.88944626,
620.8800049,46.58622742,630.8599854,40.57364655,641.0100098,35.00428391,611.0200195,60.97678757,650.8599854,24.81002045,646.9500122,29.74153519,601.0100098,61.90013504,591.0200195,49.96959305,635.9400024,38.02893066,581.039978,46.63506317,
621.9099731,44.70859146,631.8800049,38.3712883,642.0200195,33.21810532,612.0499878,58.58785629,,,647.8200073,28.99053192,602.0200195,60.02617645,592.0499878,48.57036209,636.9500122,36.32888031,581.9400024,45.17834473,
622.9400024,42.67977142,632.8900146,36.49729919,643.039978,31.9387455,612.9400024,56.33729935,,,648.8400269,27.94816399,603.039978,57.91085434,592.9400024,46.81843185,637.9699707,34.31422043,582.9799805,43.69631195,
623.9699707,40.53688812,633.9099731,35.06225204,644.0499878,30.32227325,613.9699707,53.84601212,,,649.8499756,26.75810051,604.0499878,55.34168625,593.9699707,45.65394592,638.9799805,32.90327072,584.0200195,41.75354004,
624.8499756,39.00904846,634.9199829,33.7758522,645.0700073,29.10581589,615,51.53414154,,,650.8599854,25.62964249,605.0700073,53.85138702,595,44.18890381,640,31.67796135,585.0700073,40.78647614,
625.8800049,37.38259125,635.9400024,32.31058121,645.9400024,28.20767212,616.0200195,49.40610504,,,,,605.9400024,52.33451843,596.0200195,42.67910767,641.0100098,30.46070671,585.9699707,39.64886093,
626.9099731,35.56287766,636.9500122,30.75321388,646.9500122,26.74340057,617.0499878,47.47168732,,,,,606.9500122,50.4583931,597.0499878,41.16664505,642.0200195,29.19042587,587.0100098,38.0453949,
627.9400024,33.76344681,637.9699707,29.40152931,647.9699707,25.58065987,617.9400024,45.44228745,,,,,607.9699707,48.51839447,597.9400024,40.57619095,643.039978,27.92590332,588.0499878,37.21058273,
628.9699707,32.89678955,638.8400269,28.4146843,648.9799805,24.28666496,618.9699707,43.44624329,,,,,608.9799805,46.23553085,598.9699707,39.00508499,644.0499878,26.39925575,588.9500122,36.1744194,
629.8499756,30.74488831,639.8499756,27.0706768,650,23.98166656,620,41.72194672,,,,,610,43.54595184,600,37.65289688,645.0700073,25.54474258,590,34.85385132,
630.8599854,29.42324066,640.8599854,25.921772,,,621.0200195,39.6840744,,,,,611.0200195,42.50222015,601.0100098,35.96805573,645.9400024,24.53016281,591.0200195,33.6913414,
631.8800049,28.00605583,641.8800049,24.61175728,,,622.0499878,38.08331299,,,,,612.0499878,40.77591705,602.0200195,34.93687439,646.9500122,23.3890667,592.0499878,32.85518646,
632.8900146,26.67715454,642.8900146,23.5537529,,,622.9400024,36.60555267,,,,,612.9400024,39.51616287,603.039978,33.58760834,647.9699707,22.37163353,592.9400024,31.53172112,
633.9099731,25.36084747,643.9099731,22.6116581,,,623.9699707,34.23733521,,,,,613.9699707,37.44010544,604.0499878,32.40192795,648.9799805,21.51277351,593.9699707,30.67076111,
634.9199829,24.25756264,644.9199829,21.75695801,,,625,33.183815,,,,,615,36.0181427,605.0700073,31.08531761,650,20.94959068,595,29.67800713,
635.9400024,23.06535149,645.9400024,20.77338219,,,626.0200195,31.46680832,,,,,616.0200195,34.66555405,605.9400024,29.93014526,,,596.0200195,28.72430229,
636.9500122,22.16938019,646.9500122,19.6344223,,,627.0499878,30.18913078,,,,,617.0499878,33.38303375,606.9500122,29.24027061,,,597.0499878,27.49612999,
637.9699707,20.93142509,647.9699707,18.7982769,,,627.9400024,28.97881126,,,,,617.9400024,31.71390343,607.9699707,28.08317184,,,597.9400024,26.93112564,
638.9799805,20.01081848,648.8400269,18.43728256,,,628.9699707,27.54141998,,,,,618.9699707,30.20485306,608.9799805,26.37495232,,,598.9699707,26.00181389,
639.8499756,19.4835968,649.8499756,17.39487648,,,630,26.30240059,,,,,620,29.13495636,610,26.02096176,,,600,25.0842247,
640.8599854,18.50885773,650.8599854,16.75128555,,,631.0100098,24.66777992,,,,,621.0200195,27.57235527,611.0200195,24.60733795,,,601.0100098,24.35153198,
641.8800049,17.84848213,,,,,632.0200195,23.65581322,,,,,622.0499878,26.4023056,612.0499878,23.79396439,,,602.0200195,23.45833588,
642.8900146,17.00587082,,,,,633.039978,22.63195801,,,,,622.9400024,25.42490196,612.9400024,23.13368797,,,603.039978,22.75021935,
643.9099731,16.31833649,,,,,634.0499878,21.72003746,,,,,623.9699707,24.44935608,613.9699707,21.81026077,,,604.0499878,21.93136787,
644.9199829,15.49549484,,,,,635.0700073,20.57458305,,,,,625,23.10782814,615,21.32258224,,,605.0700073,20.99165344,
645.9400024,14.9151144,,,,,635.9400024,19.81435776,,,,,626.0200195,22.05353546,616.0200195,20.15969276,,,605.9400024,20.23225975,
646.9500122,14.26936054,,,,,636.9500122,18.88985252,,,,,627.0499878,20.93637657,617.0499878,19.4141922,,,606.9500122,19.57357788,
647.9699707,13.65852261,,,,,637.9699707,17.91120911,,,,,627.9400024,20.40684891,617.9400024,18.68533897,,,607.9699707,18.83441353,
648.9799805,13.02418232,,,,,638.9799805,17.16859818,,,,,628.9699707,19.29516983,618.9699707,17.70888329,,,608.9799805,18.00521088,
649.8499756,12.692729,,,,,640,16.42356682,,,,,630,18.48277855,620,16.87626839,,,610,17.44207764,
650.8599854,12.05633068,,,,,641.0100098,15.73546505,,,,,631.0100098,17.52522087,621.0200195,16.18684196,,,611.0200195,16.7753067,
,,,,,,642.0200195,15.05517101,,,,,632.0200195,16.70059204,622.0499878,15.50369072,,,612.0499878,16.01686859,
,,,,,,643.039978,14.40935802,,,,,633.039978,15.951087,622.9400024,14.86668205,,,612.9400024,15.42804813,
,,,,,,644.0499878,13.75699615,,,,,634.0499878,15.2061615,623.9699707,14.24765968,,,613.9699707,14.78621101,
,,,,,,645.0700073,13.19275284,,,,,635.0700073,14.39262772,625,13.49713993,,,615,14.17702866,
,,,,,,645.9400024,12.72182465,,,,,635.9400024,13.66288757,626.0200195,12.81535435,,,616.0200195,13.57094097,
,,,,,,646.9500122,12.16817951,,,,,636.9500122,13.33620071,627.0499878,12.1571312,,,617.0499878,12.98388767,
,,,,,,647.9699707,11.6400404,,,,,637.9699707,12.67313004,627.9400024,11.88601685,,,617.9400024,12.56308651,
,,,,,,648.9799805,11.14203548,,,,,638.9799805,12.1187973,628.9699707,11.32849979,,,618.9699707,11.90056229,
,,,,,,650,10.72007847,,,,,640,11.60652924,630,10.62630844,,,620,11.21514606,
,,,,,,,,,,,,641.0100098,11.07878208,631.0100098,10.17248154,,,621.0200195,10.83129787,
,,,,,,,,,,,,642.0200195,10.61380863,632.0200195,9.830937386,,,622.0499878,10.45409393,
,,,,,,,,,,,,643.039978,10.17866707,633.039978,9.274368286,,,622.9400024,9.95223999,
,,,,,,,,,,,,644.0499878,9.719456673,634.0499878,8.887469292,,,623.9699707,9.58920002,
,,,,,,,,,,,,645.0700073,9.389451981,635.0700073,8.374155998,,,625,9.109490395,
,,,,,,,,,,,,645.9400024,8.948726654,635.9400024,8.251708984,,,626.0200195,8.599993706,
,,,,,,,,,,,,646.9500122,8.58203125,636.9500122,7.832917213,,,627.0499878,8.276705742,
,,,,,,,,,,,,647.9699707,8.288476944,637.9699707,7.584263802,,,627.9400024,7.856962204,
,,,,,,,,,,,,648.9799805,7.842669964,638.9799805,7.150506496,,,628.9699707,7.603507519,
,,,,,,,,,,,,650,7.501575947,640,6.88411665,,,630,7.221900463,
,,,,,,,,,,,,,,641.0100098,6.587795258,,,631.0100098,6.876799583,
,,,,,,,,,,,,,,642.0200195,6.250785828,,,632.0200195,6.52740097,
,,,,,,,,,,,,,,643.039978,6.007791519,,,633.039978,6.18751955,
,,,,,,,,,,,,,,644.0499878,5.731785297,,,634.0499878,5.966188431,
,,,,,,,,,,,,,,645.0700073,5.546942234,,,635.0700073,5.567424297,
,,,,,,,,,,,,,,645.9400024,5.308151722,,,635.9400024,5.488995075,
,,,,,,,,,,,,,,646.9500122,5.032150745,,,636.9500122,5.184505463,
,,,,,,,,,,,,,,647.9699707,4.846405029,,,637.9699707,5.019094467,
,,,,,,,,,,,,,,648.9799805,4.738417149,,,638.9799805,4.733716965,
,,,,,,,,,,,,,,650,4.419528008,,,640,4.52223587,
,,,,,,,,,,,,,,,,,,641.0100098,4.366890907,
,,,,,,,,,,,,,,,,,,642.0200195,4.195000172,
,,,,,,,,,,,,,,,,,,643.039978,3.984351397,
,,,,,,,,,,,,,,,,,,644.0499878,3.77590394,
,,,,,,,,,,,,,,,,,,645.0700073,3.533425331,
,,,,,,,,,,,,,,,,,,645.9400024,3.544653893,
,,,,,,,,,,,,,,,,,,646.9500122,3.390243769,
,,,,,,,,,,,,,,,,,,647.9699707,3.235275507,
,,,,,,,,,,,,,,,,,,648.9799805,3.114013195,
,,,,,,,,,,,,,,,,,,650,2.979291439,

ecc_500,
ecc_500
Collection Time: 4/1/2025 9:30:34 AM
Operator Name  :
Scan Software Version: 1.2(147)
Parameter List :
Instrument                        Cary Eclipse
Instrument Serial Number          EL00063371
Data mode                         Fluorescence
Scan mode                         Emission
X Mode                            Wavelength (nm)
Start (nm)                        505.00
Stop (nm)                         650.00
Ex. Wavelength (nm)               500.00
Ex. Slit (nm)                     5
Em. Slit (nm)                     5
Scan rate (nm/min)                600.00
Data interval (nm)                1.0000
Averaging Time (s)                0.1000
Excitation filter                 Auto
Emission filter                   Open
PMT voltage (V)                   490
Corrected spectra                 OFF
Multicell holder                  Multicell
Multi zero                       OFF
Method Log     :
Method Name    : Default
Date/Time stamp: 4/1/2025 9:14:35 AM
Method Modifications:
Overlayed Graphs Changed: 4/1/2025 9:16:26 AM, Old:OFF, New:ON
PMT Volts Changed: 4/1/2025 9:16:26 AM, Old:600, New:480
Cell Changer Changed: 4/1/2025 9:16:26 AM, Old:OFF, New:ON
Cell2 Changed: 4/1/2025 9:16:26 AM, Old:OFF, New:ON
Monitoring device: Changed: 4/1/2025 9:16:26 AM, Old:PCB 150, New:Block
User Delta Stop Changed: 4/1/2025 9:16:26 AM, Old: 450.00, New: 526.00
User Delta Increment Changed: 4/1/2025 9:16:26 AM, Old:  10.00, New:   0.15
Emission PMT (V): Changed: 4/1/2025 9:16:26 AM, Old: 600, New: 480
Excitation Wavelength Changed: 4/1/2025 9:16:26 AM, Old: 350.00, New: 526.00
Emission Wavelength Changed: 4/1/2025 9:16:26 AM, Old: 400.00, New: 535.00
Stop Wavelength Changed: 4/1/2025 9:16:26 AM, Old: 600.00, New: 650.00
Scan mode: Changed: 4/1/2025 9:17:18 AM, Old:Emission, New:Excitation
User Delta Stop Changed: 4/1/2025 9:17:18 AM, Old: 526.00, New: 555.00
Excitation Wavelength Changed: 4/1/2025 9:17:18 AM, Old: 526.00, New: 400.00
Emission Wavelength Changed: 4/1/2025 9:17:18 AM, Old: 535.00, New: 555.00
Stop Wavelength Changed: 4/1/2025 9:17:18 AM, Old: 650.00, New: 550.00
PMT Volts Changed: 4/1/2025 9:20:58 AM, Old:480, New:490
Scan mode: Changed: 4/1/2025 9:20:58 AM, Old:Excitation, New:Emission
Emission PMT (V): Changed: 4/1/2025 9:20:58 AM, Old: 480, New: 490
Excitation Wavelength Changed: 4/1/2025 9:20:58 AM, Old: 400.00, New: 526.00
Emission Wavelength Changed: 4/1/2025 9:20:58 AM, Old: 555.00, New: 535.00
Stop Wavelength Changed: 4/1/2025 9:20:58 AM, Old: 550.00, New: 650.00
Scan mode: Changed: 4/1/2025 9:22:17 AM, Old:Emission, New:Excitation
Excitation Wavelength Changed: 4/1/2025 9:22:17 AM, Old: 526.00, New: 400.00
Emission Wavelength Changed: 4/1/2025 9:22:17 AM, Old: 535.00, New: 555.00
Stop Wavelength Changed: 4/1/2025 9:22:17 AM, Old: 650.00, New: 550.00
Zero Mode Changed: 4/1/2025 9:27:29 AM, Old:OFF, New:Reading
Zero Mode Changed: 4/1/2025 9:27:29 AM, Old:Reading, New:ON
Scan mode: Changed: 4/1/2025 9:29:46 AM, Old:Excitation, New:Emission
Excitation Wavelength Changed: 4/1/2025 9:29:46 AM, Old: 400.00, New: 500.00
Emission Wavelength Changed: 4/1/2025 9:29:46 AM, Old: 555.00, New: 505.00
Stop Wavelength Changed: 4/1/2025 9:29:46 AM, Old: 550.00, New: 650.00
Sample2 Changed: 4/1/2025 9:30:34 AM, Old:Sample2, New:ecc_500
End Method Modifications

ecc_510,
ecc_510
Collection Time: 4/1/2025 9:37:59 AM
Operator Name  :
Scan Software Version: 1.2(147)
Parameter List :
Instrument                        Cary Eclipse
Instrument Serial Number          EL00063371
Data mode                         Fluorescence
Scan mode                         Emission
X Mode                            Wavelength (nm)
Start (nm)                        515.00
Stop (nm)                         650.00
Ex. Wavelength (nm)               510.00
Ex. Slit (nm)                     5
Em. Slit (nm)                     5
Scan rate (nm/min)                600.00
Data interval (nm)                1.0000
Averaging Time (s)                0.1000
Excitation filter                 Auto
Emission filter                   Open
PMT voltage (V)                   490
Corrected spectra                 OFF
Multicell holder                  Multicell
Multi zero                       OFF
Method Log     :
Method Name    : Default
Date/Time stamp: 4/1/2025 9:14:35 AM
Method Modifications:
Overlayed Graphs Changed: 4/1/2025 9:16:26 AM, Old:OFF, New:ON
PMT Volts Changed: 4/1/2025 9:16:26 AM, Old:600, New:480
Cell Changer Changed: 4/1/2025 9:16:26 AM, Old:OFF, New:ON
Cell2 Changed: 4/1/2025 9:16:26 AM, Old:OFF, New:ON
Monitoring device: Changed: 4/1/2025 9:16:26 AM, Old:PCB 150, New:Block
User Delta Stop Changed: 4/1/2025 9:16:26 AM, Old: 450.00, New: 526.00
User Delta Increment Changed: 4/1/2025 9:16:26 AM, Old:  10.00, New:   0.15
Emission PMT (V): Changed: 4/1/2025 9:16:26 AM, Old: 600, New: 480
Excitation Wavelength Changed: 4/1/2025 9:16:26 AM, Old: 350.00, New: 526.00
Emission Wavelength Changed: 4/1/2025 9:16:26 AM, Old: 400.00, New: 535.00
Stop Wavelength Changed: 4/1/2025 9:16:26 AM, Old: 600.00, New: 650.00
Scan mode: Changed: 4/1/2025 9:17:18 AM, Old:Emission, New:Excitation
User Delta Stop Changed: 4/1/2025 9:17:18 AM, Old: 526.00, New: 555.00
Excitation Wavelength Changed: 4/1/2025 9:17:18 AM, Old: 526.00, New: 400.00
Emission Wavelength Changed: 4/1/2025 9:17:18 AM, Old: 535.00, New: 555.00
Stop Wavelength Changed: 4/1/2025 9:17:18 AM, Old: 650.00, New: 550.00
PMT Volts Changed: 4/1/2025 9:20:58 AM, Old:480, New:490
Scan mode: Changed: 4/1/2025 9:20:58 AM, Old:Excitation, New:Emission
Emission PMT (V): Changed: 4/1/2025 9:20:58 AM, Old: 480, New: 490
Excitation Wavelength Changed: 4/1/2025 9:20:58 AM, Old: 400.00, New: 526.00
Emission Wavelength Changed: 4/1/2025 9:20:58 AM, Old: 555.00, New: 535.00
Stop Wavelength Changed: 4/1/2025 9:20:58 AM, Old: 550.00, New: 650.00
Scan mode: Changed: 4/1/2025 9:22:17 AM, Old:Emission, New:Excitation
Excitation Wavelength Changed: 4/1/2025 9:22:17 AM, Old: 526.00, New: 400.00
Emission Wavelength Changed: 4/1/2025 9:22:17 AM, Old: 535.00, New: 555.00
Stop Wavelength Changed: 4/1/2025 9:22:17 AM, Old: 650.00, New: 550.00
Zero Mode Changed: 4/1/2025 9:27:29 AM, Old:OFF, New:Reading
Zero Mode Changed: 4/1/2025 9:27:29 AM, Old:Reading, New:ON
Scan mode: Changed: 4/1/2025 9:29:46 AM, Old:Excitation, New:Emission
Excitation Wavelength Changed: 4/1/2025 9:29:46 AM, Old: 400.00, New: 500.00
Emission Wavelength Changed: 4/1/2025 9:29:46 AM, Old: 555.00, New: 505.00
Stop Wavelength Changed: 4/1/2025 9:29:46 AM, Old: 550.00, New: 650.00
Sample2 Changed: 4/1/2025 9:30:34 AM, Old:Sample2, New:ecc_500
Excitation Wavelength Changed: 4/1/2025 9:37:32 AM, Old: 500.00, New: 510.00
Emission Wavelength Changed: 4/1/2025 9:37:32 AM, Old: 505.00, New: 515.00
Sample2 Changed: 4/1/2025 9:37:59 AM, Old:ecc_500, New:ecc_510
End Method Modifications

ecc_520,
ecc_520
Collection Time: 4/1/2025 9:41:05 AM
Operator Name  :
Scan Software Version: 1.2(147)
Parameter List :
Instrument                        Cary Eclipse
Instrument Serial Number          EL00063371
Data mode                         Fluorescence
Scan mode                         Emission
X Mode                            Wavelength (nm)
Start (nm)                        525.00
Stop (nm)                         650.00
Ex. Wavelength (nm)               520.00
Ex. Slit (nm)                     5
Em. Slit (nm)                     5
Scan rate (nm/min)                600.00
Data interval (nm)                1.0000
Averaging Time (s)                0.1000
Excitation filter                 Auto
Emission filter                   Open
PMT voltage (V)                   490
Corrected spectra                 OFF
Multicell holder                  Multicell
Multi zero                       OFF
Method Log     :
Method Name    : Default
Date/Time stamp: 4/1/2025 9:14:35 AM
Method Modifications:
Overlayed Graphs Changed: 4/1/2025 9:16:26 AM, Old:OFF, New:ON
PMT Volts Changed: 4/1/2025 9:16:26 AM, Old:600, New:480
Cell Changer Changed: 4/1/2025 9:16:26 AM, Old:OFF, New:ON
Cell2 Changed: 4/1/2025 9:16:26 AM, Old:OFF, New:ON
Monitoring device: Changed: 4/1/2025 9:16:26 AM, Old:PCB 150, New:Block
User Delta Stop Changed: 4/1/2025 9:16:26 AM, Old: 450.00, New: 526.00
User Delta Increment Changed: 4/1/2025 9:16:26 AM, Old:  10.00, New:   0.15
Emission PMT (V): Changed: 4/1/2025 9:16:26 AM, Old: 600, New: 480
Excitation Wavelength Changed: 4/1/2025 9:16:26 AM, Old: 350.00, New: 526.00
Emission Wavelength Changed: 4/1/2025 9:16:26 AM, Old: 400.00, New: 535.00
Stop Wavelength Changed: 4/1/2025 9:16:26 AM, Old: 600.00, New: 650.00
Scan mode: Changed: 4/1/2025 9:17:18 AM, Old:Emission, New:Excitation
User Delta Stop Changed: 4/1/2025 9:17:18 AM, Old: 526.00, New: 555.00
Excitation Wavelength Changed: 4/1/2025 9:17:18 AM, Old: 526.00, New: 400.00
Emission Wavelength Changed: 4/1/2025 9:17:18 AM, Old: 535.00, New: 555.00
Stop Wavelength Changed: 4/1/2025 9:17:18 AM, Old: 650.00, New: 550.00
PMT Volts Changed: 4/1/2025 9:20:58 AM, Old:480, New:490
Scan mode: Changed: 4/1/2025 9:20:58 AM, Old:Excitation, New:Emission
Emission PMT (V): Changed: 4/1/2025 9:20:58 AM, Old: 480, New: 490
Excitation Wavelength Changed: 4/1/2025 9:20:58 AM, Old: 400.00, New: 526.00
Emission Wavelength Changed: 4/1/2025 9:20:58 AM, Old: 555.00, New: 535.00
Stop Wavelength Changed: 4/1/2025 9:20:58 AM, Old: 550.00, New: 650.00
Scan mode: Changed: 4/1/2025 9:22:17 AM, Old:Emission, New:Excitation
Excitation Wavelength Changed: 4/1/2025 9:22:17 AM, Old: 526.00, New: 400.00
Emission Wavelength Changed: 4/1/2025 9:22:17 AM, Old: 535.00, New: 555.00
Stop Wavelength Changed: 4/1/2025 9:22:17 AM, Old: 650.00, New: 550.00
Zero Mode Changed: 4/1/2025 9:27:29 AM, Old:OFF, New:Reading
Zero Mode Changed: 4/1/2025 9:27:29 AM, Old:Reading, New:ON
Scan mode: Changed: 4/1/2025 9:29:46 AM, Old:Excitation, New:Emission
Excitation Wavelength Changed: 4/1/2025 9:29:46 AM, Old: 400.00, New: 500.00
Emission Wavelength Changed: 4/1/2025 9:29:46 AM, Old: 555.00, New: 505.00
Stop Wavelength Changed: 4/1/2025 9:29:46 AM, Old: 550.00, New: 650.00
Sample2 Changed: 4/1/2025 9:30:34 AM, Old:Sample2, New:ecc_500
Excitation Wavelength Changed: 4/1/2025 9:37:32 AM, Old: 500.00, New: 510.00
Emission Wavelength Changed: 4/1/2025 9:37:32 AM, Old: 505.00, New: 515.00
Sample2 Changed: 4/1/2025 9:37:59 AM, Old:ecc_500, New:ecc_510
Excitation Wavelength Changed: 4/1/2025 9:40:38 AM, Old: 510.00, New: 520.00
Emission Wavelength Changed: 4/1/2025 9:40:38 AM, Old: 515.00, New: 525.00
Sample2 Changed: 4/1/2025 9:41:05 AM, Old:ecc_510, New:ecc_520
End Method Modifications

ecc_490,
ecc_490
Collection Time: 4/1/2025 9:42:28 AM
Operator Name  :
Scan Software Version: 1.2(147)
Parameter List :
Instrument                        Cary Eclipse
Instrument Serial Number          EL00063371
Data mode                         Fluorescence
Scan mode                         Emission
X Mode                            Wavelength (nm)
Start (nm)                        495.00
Stop (nm)                         650.00
Ex. Wavelength (nm)               490.00
Ex. Slit (nm)                     5
Em. Slit (nm)                     5
Scan rate (nm/min)                600.00
Data interval (nm)                1.0000
Averaging Time (s)                0.1000
Excitation filter                 Auto
Emission filter                   Open
PMT voltage (V)                   490
Corrected spectra                 OFF
Multicell holder                  Multicell
Multi zero                       OFF
Method Log     :
Method Name    : Default
Date/Time stamp: 4/1/2025 9:14:35 AM
Method Modifications:
Overlayed Graphs Changed: 4/1/2025 9:16:26 AM, Old:OFF, New:ON
PMT Volts Changed: 4/1/2025 9:16:26 AM, Old:600, New:480
Cell Changer Changed: 4/1/2025 9:16:26 AM, Old:OFF, New:ON
Cell2 Changed: 4/1/2025 9:16:26 AM, Old:OFF, New:ON
Monitoring device: Changed: 4/1/2025 9:16:26 AM, Old:PCB 150, New:Block
User Delta Stop Changed: 4/1/2025 9:16:26 AM, Old: 450.00, New: 526.00
User Delta Increment Changed: 4/1/2025 9:16:26 AM, Old:  10.00, New:   0.15
Emission PMT (V): Changed: 4/1/2025 9:16:26 AM, Old: 600, New: 480
Excitation Wavelength Changed: 4/1/2025 9:16:26 AM, Old: 350.00, New: 526.00
Emission Wavelength Changed: 4/1/2025 9:16:26 AM, Old: 400.00, New: 535.00
Stop Wavelength Changed: 4/1/2025 9:16:26 AM, Old: 600.00, New: 650.00
Scan mode: Changed: 4/1/2025 9:17:18 AM, Old:Emission, New:Excitation
User Delta Stop Changed: 4/1/2025 9:17:18 AM, Old: 526.00, New: 555.00
Excitation Wavelength Changed: 4/1/2025 9:17:18 AM, Old: 526.00, New: 400.00
Emission Wavelength Changed: 4/1/2025 9:17:18 AM, Old: 535.00, New: 555.00
Stop Wavelength Changed: 4/1/2025 9:17:18 AM, Old: 650.00, New: 550.00
PMT Volts Changed: 4/1/2025 9:20:58 AM, Old:480, New:490
Scan mode: Changed: 4/1/2025 9:20:58 AM, Old:Excitation, New:Emission
Emission PMT (V): Changed: 4/1/2025 9:20:58 AM, Old: 480, New: 490
Excitation Wavelength Changed: 4/1/2025 9:20:58 AM, Old: 400.00, New: 526.00
Emission Wavelength Changed: 4/1/2025 9:20:58 AM, Old: 555.00, New: 535.00
Stop Wavelength Changed: 4/1/2025 9:20:58 AM, Old: 550.00, New: 650.00
Scan mode: Changed: 4/1/2025 9:22:17 AM, Old:Emission, New:Excitation
Excitation Wavelength Changed: 4/1/2025 9:22:17 AM, Old: 526.00, New: 400.00
Emission Wavelength Changed: 4/1/2025 9:22:17 AM, Old: 535.00, New: 555.00
Stop Wavelength Changed: 4/1/2025 9:22:17 AM, Old: 650.00, New: 550.00
Zero Mode Changed: 4/1/2025 9:27:29 AM, Old:OFF, New:Reading
Zero Mode Changed: 4/1/2025 9:27:29 AM, Old:Reading, New:ON
Scan mode: Changed: 4/1/2025 9:29:46 AM, Old:Excitation, New:Emission
Excitation Wavelength Changed: 4/1/2025 9:29:46 AM, Old: 400.00, New: 500.00
Emission Wavelength Changed: 4/1/2025 9:29:46 AM, Old: 555.00, New: 505.00
Stop Wavelength Changed: 4/1/2025 9:29:46 AM, Old: 550.00, New: 650.00
Sample2 Changed: 4/1/2025 9:30:34 AM, Old:Sample2, New:ecc_500
Excitation Wavelength Changed: 4/1/2025 9:37:32 AM, Old: 500.00, New: 510.00
Emission Wavelength Changed: 4/1/2025 9:37:32 AM, Old: 505.00, New: 515.00
Sample2 Changed: 4/1/2025 9:37:59 AM, Old:ecc_500, New:ecc_510
Excitation Wavelength Changed: 4/1/2025 9:40:38 AM, Old: 510.00, New: 520.00
Emission Wavelength Changed: 4/1/2025 9:40:38 AM, Old: 515.00, New: 525.00
Sample2 Changed: 4/1/2025 9:41:05 AM, Old:ecc_510, New:ecc_520
Excitation Wavelength Changed: 4/1/2025 9:42:10 AM, Old: 520.00, New: 490.00
Emission Wavelength Changed: 4/1/2025 9:42:10 AM, Old: 525.00, New: 495.00
Sample2 Changed: 4/1/2025 9:42:28 AM, Old:ecc_520, New:ecc_490
End Method Modifications

ecc_530,
ecc_530
Collection Time: 4/1/2025 9:44:02 AM
Operator Name  :
Scan Software Version: 1.2(147)
Parameter List :
Instrument                        Cary Eclipse
Instrument Serial Number          EL00063371
Data mode                         Fluorescence
Scan mode                         Emission
X Mode                            Wavelength (nm)
Start (nm)                        535.00
Stop (nm)                         650.00
Ex. Wavelength (nm)               530.00
Ex. Slit (nm)                     5
Em. Slit (nm)                     5
Scan rate (nm/min)                600.00
Data interval (nm)                1.0000
Averaging Time (s)                0.1000
Excitation filter                 Auto
Emission filter                   Open
PMT voltage (V)                   490
Corrected spectra                 OFF
Multicell holder                  Multicell
Multi zero                       OFF
Method Log     :
Method Name    : Default
Date/Time stamp: 4/1/2025 9:14:35 AM
Method Modifications:
Overlayed Graphs Changed: 4/1/2025 9:16:26 AM, Old:OFF, New:ON
PMT Volts Changed: 4/1/2025 9:16:26 AM, Old:600, New:480
Cell Changer Changed: 4/1/2025 9:16:26 AM, Old:OFF, New:ON
Cell2 Changed: 4/1/2025 9:16:26 AM, Old:OFF, New:ON
Monitoring device: Changed: 4/1/2025 9:16:26 AM, Old:PCB 150, New:Block
User Delta Stop Changed: 4/1/2025 9:16:26 AM, Old: 450.00, New: 526.00
User Delta Increment Changed: 4/1/2025 9:16:26 AM, Old:  10.00, New:   0.15
Emission PMT (V): Changed: 4/1/2025 9:16:26 AM, Old: 600, New: 480
Excitation Wavelength Changed: 4/1/2025 9:16:26 AM, Old: 350.00, New: 526.00
Emission Wavelength Changed: 4/1/2025 9:16:26 AM, Old: 400.00, New: 535.00
Stop Wavelength Changed: 4/1/2025 9:16:26 AM, Old: 600.00, New: 650.00
Scan mode: Changed: 4/1/2025 9:17:18 AM, Old:Emission, New:Excitation
User Delta Stop Changed: 4/1/2025 9:17:18 AM, Old: 526.00, New: 555.00
Excitation Wavelength Changed: 4/1/2025 9:17:18 AM, Old: 526.00, New: 400.00
Emission Wavelength Changed: 4/1/2025 9:17:18 AM, Old: 535.00, New: 555.00
Stop Wavelength Changed: 4/1/2025 9:17:18 AM, Old: 650.00, New: 550.00
PMT Volts Changed: 4/1/2025 9:20:58 AM, Old:480, New:490
Scan mode: Changed: 4/1/2025 9:20:58 AM, Old:Excitation, New:Emission
Emission PMT (V): Changed: 4/1/2025 9:20:58 AM, Old: 480, New: 490
Excitation Wavelength Changed: 4/1/2025 9:20:58 AM, Old: 400.00, New: 526.00
Emission Wavelength Changed: 4/1/2025 9:20:58 AM, Old: 555.00, New: 535.00
Stop Wavelength Changed: 4/1/2025 9:20:58 AM, Old: 550.00, New: 650.00
Scan mode: Changed: 4/1/2025 9:22:17 AM, Old:Emission, New:Excitation
Excitation Wavelength Changed: 4/1/2025 9:22:17 AM, Old: 526.00, New: 400.00
Emission Wavelength Changed: 4/1/2025 9:22:17 AM, Old: 535.00, New: 555.00
Stop Wavelength Changed: 4/1/2025 9:22:17 AM, Old: 650.00, New: 550.00
Zero Mode Changed: 4/1/2025 9:27:29 AM, Old:OFF, New:Reading
Zero Mode Changed: 4/1/2025 9:27:29 AM, Old:Reading, New:ON
Scan mode: Changed: 4/1/2025 9:29:46 AM, Old:Excitation, New:Emission
Excitation Wavelength Changed: 4/1/2025 9:29:46 AM, Old: 400.00, New: 500.00
Emission Wavelength Changed: 4/1/2025 9:29:46 AM, Old: 555.00, New: 505.00
Stop Wavelength Changed: 4/1/2025 9:29:46 AM, Old: 550.00, New: 650.00
Sample2 Changed: 4/1/2025 9:30:34 AM, Old:Sample2, New:ecc_500
Excitation Wavelength Changed: 4/1/2025 9:37:32 AM, Old: 500.00, New: 510.00
Emission Wavelength Changed: 4/1/2025 9:37:32 AM, Old: 505.00, New: 515.00
Sample2 Changed: 4/1/2025 9:37:59 AM, Old:ecc_500, New:ecc_510
Excitation Wavelength Changed: 4/1/2025 9:40:38 AM, Old: 510.00, New: 520.00
Emission Wavelength Changed: 4/1/2025 9:40:38 AM, Old: 515.00, New: 525.00
Sample2 Changed: 4/1/2025 9:41:05 AM, Old:ecc_510, New:ecc_520
Excitation Wavelength Changed: 4/1/2025 9:42:10 AM, Old: 520.00, New: 490.00
Emission Wavelength Changed: 4/1/2025 9:42:10 AM, Old: 525.00, New: 495.00
Sample2 Changed: 4/1/2025 9:42:28 AM, Old:ecc_520, New:ecc_490
Excitation Wavelength Changed: 4/1/2025 9:43:42 AM, Old: 490.00, New: 530.00
Emission Wavelength Changed: 4/1/2025 9:43:42 AM, Old: 495.00, New: 535.00
Sample2 Changed: 4/1/2025 9:44:02 AM, Old:ecc_490, New:ecc_530
End Method Modifications

ecc_526,
ecc_526
Collection Time: 4/1/2025 9:45:08 AM
Operator Name  :
Scan Software Version: 1.2(147)
Parameter List :
Instrument                        Cary Eclipse
Instrument Serial Number          EL00063371
Data mode                         Fluorescence
Scan mode                         Emission
X Mode                            Wavelength (nm)
Start (nm)                        531.00
Stop (nm)                         650.00
Ex. Wavelength (nm)               526.00
Ex. Slit (nm)                     5
Em. Slit (nm)                     5
Scan rate (nm/min)                600.00
Data interval (nm)                1.0000
Averaging Time (s)                0.1000
Excitation filter                 Auto
Emission filter                   Open
PMT voltage (V)                   490
Corrected spectra                 OFF
Multicell holder                  Multicell
Multi zero                       OFF
Method Log     :
Method Name    : Default
Date/Time stamp: 4/1/2025 9:14:35 AM
Method Modifications:
Overlayed Graphs Changed: 4/1/2025 9:16:26 AM, Old:OFF, New:ON
PMT Volts Changed: 4/1/2025 9:16:26 AM, Old:600, New:480
Cell Changer Changed: 4/1/2025 9:16:26 AM, Old:OFF, New:ON
Cell2 Changed: 4/1/2025 9:16:26 AM, Old:OFF, New:ON
Monitoring device: Changed: 4/1/2025 9:16:26 AM, Old:PCB 150, New:Block
User Delta Stop Changed: 4/1/2025 9:16:26 AM, Old: 450.00, New: 526.00
User Delta Increment Changed: 4/1/2025 9:16:26 AM, Old:  10.00, New:   0.15
Emission PMT (V): Changed: 4/1/2025 9:16:26 AM, Old: 600, New: 480
Excitation Wavelength Changed: 4/1/2025 9:16:26 AM, Old: 350.00, New: 526.00
Emission Wavelength Changed: 4/1/2025 9:16:26 AM, Old: 400.00, New: 535.00
Stop Wavelength Changed: 4/1/2025 9:16:26 AM, Old: 600.00, New: 650.00
Scan mode: Changed: 4/1/2025 9:17:18 AM, Old:Emission, New:Excitation
User Delta Stop Changed: 4/1/2025 9:17:18 AM, Old: 526.00, New: 555.00
Excitation Wavelength Changed: 4/1/2025 9:17:18 AM, Old: 526.00, New: 400.00
Emission Wavelength Changed: 4/1/2025 9:17:18 AM, Old: 535.00, New: 555.00
Stop Wavelength Changed: 4/1/2025 9:17:18 AM, Old: 650.00, New: 550.00
PMT Volts Changed: 4/1/2025 9:20:58 AM, Old:480, New:490
Scan mode: Changed: 4/1/2025 9:20:58 AM, Old:Excitation, New:Emission
Emission PMT (V): Changed: 4/1/2025 9:20:58 AM, Old: 480, New: 490
Excitation Wavelength Changed: 4/1/2025 9:20:58 AM, Old: 400.00, New: 526.00
Emission Wavelength Changed: 4/1/2025 9:20:58 AM, Old: 555.00, New: 535.00
Stop Wavelength Changed: 4/1/2025 9:20:58 AM, Old: 550.00, New: 650.00
Scan mode: Changed: 4/1/2025 9:22:17 AM, Old:Emission, New:Excitation
Excitation Wavelength Changed: 4/1/2025 9:22:17 AM, Old: 526.00, New: 400.00
Emission Wavelength Changed: 4/1/2025 9:22:17 AM, Old: 535.00, New: 555.00
Stop Wavelength Changed: 4/1/2025 9:22:17 AM, Old: 650.00, New: 550.00
Zero Mode Changed: 4/1/2025 9:27:29 AM, Old:OFF, New:Reading
Zero Mode Changed: 4/1/2025 9:27:29 AM, Old:Reading, New:ON
Scan mode: Changed: 4/1/2025 9:29:46 AM, Old:Excitation, New:Emission
Excitation Wavelength Changed: 4/1/2025 9:29:46 AM, Old: 400.00, New: 500.00
Emission Wavelength Changed: 4/1/2025 9:29:46 AM, Old: 555.00, New: 505.00
Stop Wavelength Changed: 4/1/2025 9:29:46 AM, Old: 550.00, New: 650.00
Sample2 Changed: 4/1/2025 9:30:34 AM, Old:Sample2, New:ecc_500
Excitation Wavelength Changed: 4/1/2025 9:37:32 AM, Old: 500.00, New: 510.00
Emission Wavelength Changed: 4/1/2025 9:37:32 AM, Old: 505.00, New: 515.00
Sample2 Changed: 4/1/2025 9:37:59 AM, Old:ecc_500, New:ecc_510
Excitation Wavelength Changed: 4/1/2025 9:40:38 AM, Old: 510.00, New: 520.00
Emission Wavelength Changed: 4/1/2025 9:40:38 AM, Old: 515.00, New: 525.00
Sample2 Changed: 4/1/2025 9:41:05 AM, Old:ecc_510, New:ecc_520
Excitation Wavelength Changed: 4/1/2025 9:42:10 AM, Old: 520.00, New: 490.00
Emission Wavelength Changed: 4/1/2025 9:42:10 AM, Old: 525.00, New: 495.00
Sample2 Changed: 4/1/2025 9:42:28 AM, Old:ecc_520, New:ecc_490
Excitation Wavelength Changed: 4/1/2025 9:43:42 AM, Old: 490.00, New: 530.00
Emission Wavelength Changed: 4/1/2025 9:43:42 AM, Old: 495.00, New: 535.00
Sample2 Changed: 4/1/2025 9:44:02 AM, Old:ecc_490, New:ecc_530
Excitation Wavelength Changed: 4/1/2025 9:44:50 AM, Old: 530.00, New: 526.00
Emission Wavelength Changed: 4/1/2025 9:44:50 AM, Old: 535.00, New: 531.00
Sample2 Changed: 4/1/2025 9:45:08 AM, Old:ecc_530, New:ecc_526
End Method Modifications

ecc_480,
ecc_480
Collection Time: 4/1/2025 9:46:10 AM
Operator Name  :
Scan Software Version: 1.2(147)
Parameter List :
Instrument                        Cary Eclipse
Instrument Serial Number          EL00063371
Data mode                         Fluorescence
Scan mode                         Emission
X Mode                            Wavelength (nm)
Start (nm)                        485.00
Stop (nm)                         650.00
Ex. Wavelength (nm)               480.00
Ex. Slit (nm)                     5
Em. Slit (nm)                     5
Scan rate (nm/min)                600.00
Data interval (nm)                1.0000
Averaging Time (s)                0.1000
Excitation filter                 Auto
Emission filter                   Open
PMT voltage (V)                   490
Corrected spectra                 OFF
Multicell holder                  Multicell
Multi zero                       OFF
Method Log     :
Method Name    : Default
Date/Time stamp: 4/1/2025 9:14:35 AM
Method Modifications:
Overlayed Graphs Changed: 4/1/2025 9:16:26 AM, Old:OFF, New:ON
PMT Volts Changed: 4/1/2025 9:16:26 AM, Old:600, New:480
Cell Changer Changed: 4/1/2025 9:16:26 AM, Old:OFF, New:ON
Cell2 Changed: 4/1/2025 9:16:26 AM, Old:OFF, New:ON
Monitoring device: Changed: 4/1/2025 9:16:26 AM, Old:PCB 150, New:Block
User Delta Stop Changed: 4/1/2025 9:16:26 AM, Old: 450.00, New: 526.00
User Delta Increment Changed: 4/1/2025 9:16:26 AM, Old:  10.00, New:   0.15
Emission PMT (V): Changed: 4/1/2025 9:16:26 AM, Old: 600, New: 480
Excitation Wavelength Changed: 4/1/2025 9:16:26 AM, Old: 350.00, New: 526.00
Emission Wavelength Changed: 4/1/2025 9:16:26 AM, Old: 400.00, New: 535.00
Stop Wavelength Changed: 4/1/2025 9:16:26 AM, Old: 600.00, New: 650.00
Scan mode: Changed: 4/1/2025 9:17:18 AM, Old:Emission, New:Excitation
User Delta Stop Changed: 4/1/2025 9:17:18 AM, Old: 526.00, New: 555.00
Excitation Wavelength Changed: 4/1/2025 9:17:18 AM, Old: 526.00, New: 400.00
Emission Wavelength Changed: 4/1/2025 9:17:18 AM, Old: 535.00, New: 555.00
Stop Wavelength Changed: 4/1/2025 9:17:18 AM, Old: 650.00, New: 550.00
PMT Volts Changed: 4/1/2025 9:20:58 AM, Old:480, New:490
Scan mode: Changed: 4/1/2025 9:20:58 AM, Old:Excitation, New:Emission
Emission PMT (V): Changed: 4/1/2025 9:20:58 AM, Old: 480, New: 490
Excitation Wavelength Changed: 4/1/2025 9:20:58 AM, Old: 400.00, New: 526.00
Emission Wavelength Changed: 4/1/2025 9:20:58 AM, Old: 555.00, New: 535.00
Stop Wavelength Changed: 4/1/2025 9:20:58 AM, Old: 550.00, New: 650.00
Scan mode: Changed: 4/1/2025 9:22:17 AM, Old:Emission, New:Excitation
Excitation Wavelength Changed: 4/1/2025 9:22:17 AM, Old: 526.00, New: 400.00
Emission Wavelength Changed: 4/1/2025 9:22:17 AM, Old: 535.00, New: 555.00
Stop Wavelength Changed: 4/1/2025 9:22:17 AM, Old: 650.00, New: 550.00
Zero Mode Changed: 4/1/2025 9:27:29 AM, Old:OFF, New:Reading
Zero Mode Changed: 4/1/2025 9:27:29 AM, Old:Reading, New:ON
Scan mode: Changed: 4/1/2025 9:29:46 AM, Old:Excitation, New:Emission
Excitation Wavelength Changed: 4/1/2025 9:29:46 AM, Old: 400.00, New: 500.00
Emission Wavelength Changed: 4/1/2025 9:29:46 AM, Old: 555.00, New: 505.00
Stop Wavelength Changed: 4/1/2025 9:29:46 AM, Old: 550.00, New: 650.00
Sample2 Changed: 4/1/2025 9:30:34 AM, Old:Sample2, New:ecc_500
Excitation Wavelength Changed: 4/1/2025 9:37:32 AM, Old: 500.00, New: 510.00
Emission Wavelength Changed: 4/1/2025 9:37:32 AM, Old: 505.00, New: 515.00
Sample2 Changed: 4/1/2025 9:37:59 AM, Old:ecc_500, New:ecc_510
Excitation Wavelength Changed: 4/1/2025 9:40:38 AM, Old: 510.00, New: 520.00
Emission Wavelength Changed: 4/1/2025 9:40:38 AM, Old: 515.00, New: 525.00
Sample2 Changed: 4/1/2025 9:41:05 AM, Old:ecc_510, New:ecc_520
Excitation Wavelength Changed: 4/1/2025 9:42:10 AM, Old: 520.00, New: 490.00
Emission Wavelength Changed: 4/1/2025 9:42:10 AM, Old: 525.00, New: 495.00
Sample2 Changed: 4/1/2025 9:42:28 AM, Old:ecc_520, New:ecc_490
Excitation Wavelength Changed: 4/1/2025 9:43:42 AM, Old: 490.00, New: 530.00
Emission Wavelength Changed: 4/1/2025 9:43:42 AM, Old: 495.00, New: 535.00
Sample2 Changed: 4/1/2025 9:44:02 AM, Old:ecc_490, New:ecc_530
Excitation Wavelength Changed: 4/1/2025 9:44:50 AM, Old: 530.00, New: 526.00
Emission Wavelength Changed: 4/1/2025 9:44:50 AM, Old: 535.00, New: 531.00
Sample2 Changed: 4/1/2025 9:45:08 AM, Old:ecc_530, New:ecc_526
Excitation Wavelength Changed: 4/1/2025 9:45:50 AM, Old: 526.00, New: 480.00
Emission Wavelength Changed: 4/1/2025 9:45:50 AM, Old: 531.00, New: 485.00
Sample2 Changed: 4/1/2025 9:46:10 AM, Old:ecc_526, New:ecc_480
End Method Modifications

ecc_470,
ecc_470
Collection Time: 4/1/2025 9:47:12 AM
Operator Name  :
Scan Software Version: 1.2(147)
Parameter List :
Instrument                        Cary Eclipse
Instrument Serial Number          EL00063371
Data mode                         Fluorescence
Scan mode                         Emission
X Mode                            Wavelength (nm)
Start (nm)                        475.00
Stop (nm)                         650.00
Ex. Wavelength (nm)               470.00
Ex. Slit (nm)                     5
Em. Slit (nm)                     5
Scan rate (nm/min)                600.00
Data interval (nm)                1.0000
Averaging Time (s)                0.1000
Excitation filter                 Auto
Emission filter                   Open
PMT voltage (V)                   490
Corrected spectra                 OFF
Multicell holder                  Multicell
Multi zero                       OFF
Method Log     :
Method Name    : Default
Date/Time stamp: 4/1/2025 9:14:35 AM
Method Modifications:
Overlayed Graphs Changed: 4/1/2025 9:16:26 AM, Old:OFF, New:ON
PMT Volts Changed: 4/1/2025 9:16:26 AM, Old:600, New:480
Cell Changer Changed: 4/1/2025 9:16:26 AM, Old:OFF, New:ON
Cell2 Changed: 4/1/2025 9:16:26 AM, Old:OFF, New:ON
Monitoring device: Changed: 4/1/2025 9:16:26 AM, Old:PCB 150, New:Block
User Delta Stop Changed: 4/1/2025 9:16:26 AM, Old: 450.00, New: 526.00
User Delta Increment Changed: 4/1/2025 9:16:26 AM, Old:  10.00, New:   0.15
Emission PMT (V): Changed: 4/1/2025 9:16:26 AM, Old: 600, New: 480
Excitation Wavelength Changed: 4/1/2025 9:16:26 AM, Old: 350.00, New: 526.00
Emission Wavelength Changed: 4/1/2025 9:16:26 AM, Old: 400.00, New: 535.00
Stop Wavelength Changed: 4/1/2025 9:16:26 AM, Old: 600.00, New: 650.00
Scan mode: Changed: 4/1/2025 9:17:18 AM, Old:Emission, New:Excitation
User Delta Stop Changed: 4/1/2025 9:17:18 AM, Old: 526.00, New: 555.00
Excitation Wavelength Changed: 4/1/2025 9:17:18 AM, Old: 526.00, New: 400.00
Emission Wavelength Changed: 4/1/2025 9:17:18 AM, Old: 535.00, New: 555.00
Stop Wavelength Changed: 4/1/2025 9:17:18 AM, Old: 650.00, New: 550.00
PMT Volts Changed: 4/1/2025 9:20:58 AM, Old:480, New:490
Scan mode: Changed: 4/1/2025 9:20:58 AM, Old:Excitation, New:Emission
Emission PMT (V): Changed: 4/1/2025 9:20:58 AM, Old: 480, New: 490
Excitation Wavelength Changed: 4/1/2025 9:20:58 AM, Old: 400.00, New: 526.00
Emission Wavelength Changed: 4/1/2025 9:20:58 AM, Old: 555.00, New: 535.00
Stop Wavelength Changed: 4/1/2025 9:20:58 AM, Old: 550.00, New: 650.00
Scan mode: Changed: 4/1/2025 9:22:17 AM, Old:Emission, New:Excitation
Excitation Wavelength Changed: 4/1/2025 9:22:17 AM, Old: 526.00, New: 400.00
Emission Wavelength Changed: 4/1/2025 9:22:17 AM, Old: 535.00, New: 555.00
Stop Wavelength Changed: 4/1/2025 9:22:17 AM, Old: 650.00, New: 550.00
Zero Mode Changed: 4/1/2025 9:27:29 AM, Old:OFF, New:Reading
Zero Mode Changed: 4/1/2025 9:27:29 AM, Old:Reading, New:ON
Scan mode: Changed: 4/1/2025 9:29:46 AM, Old:Excitation, New:Emission
Excitation Wavelength Changed: 4/1/2025 9:29:46 AM, Old: 400.00, New: 500.00
Emission Wavelength Changed: 4/1/2025 9:29:46 AM, Old: 555.00, New: 505.00
Stop Wavelength Changed: 4/1/2025 9:29:46 AM, Old: 550.00, New: 650.00
Sample2 Changed: 4/1/2025 9:30:34 AM, Old:Sample2, New:ecc_500
Excitation Wavelength Changed: 4/1/2025 9:37:32 AM, Old: 500.00, New: 510.00
Emission Wavelength Changed: 4/1/2025 9:37:32 AM, Old: 505.00, New: 515.00
Sample2 Changed: 4/1/2025 9:37:59 AM, Old:ecc_500, New:ecc_510
Excitation Wavelength Changed: 4/1/2025 9:40:38 AM, Old: 510.00, New: 520.00
Emission Wavelength Changed: 4/1/2025 9:40:38 AM, Old: 515.00, New: 525.00
Sample2 Changed: 4/1/2025 9:41:05 AM, Old:ecc_510, New:ecc_520
Excitation Wavelength Changed: 4/1/2025 9:42:10 AM, Old: 520.00, New: 490.00
Emission Wavelength Changed: 4/1/2025 9:42:10 AM, Old: 525.00, New: 495.00
Sample2 Changed: 4/1/2025 9:42:28 AM, Old:ecc_520, New:ecc_490
Excitation Wavelength Changed: 4/1/2025 9:43:42 AM, Old: 490.00, New: 530.00
Emission Wavelength Changed: 4/1/2025 9:43:42 AM, Old: 495.00, New: 535.00
Sample2 Changed: 4/1/2025 9:44:02 AM, Old:ecc_490, New:ecc_530
Excitation Wavelength Changed: 4/1/2025 9:44:50 AM, Old: 530.00, New: 526.00
Emission Wavelength Changed: 4/1/2025 9:44:50 AM, Old: 535.00, New: 531.00
Sample2 Changed: 4/1/2025 9:45:08 AM, Old:ecc_530, New:ecc_526
Excitation Wavelength Changed: 4/1/2025 9:45:50 AM, Old: 526.00, New: 480.00
Emission Wavelength Changed: 4/1/2025 9:45:50 AM, Old: 531.00, New: 485.00
Sample2 Changed: 4/1/2025 9:46:10 AM, Old:ecc_526, New:ecc_480
Excitation Wavelength Changed: 4/1/2025 9:46:49 AM, Old: 480.00, New: 470.00
Emission Wavelength Changed: 4/1/2025 9:46:49 AM, Old: 485.00, New: 475.00
Sample2 Changed: 4/1/2025 9:47:12 AM, Old:ecc_480, New:ecc_470
End Method Modifications

ecc_515,
ecc_515
Collection Time: 4/1/2025 9:48:22 AM
Operator Name  :
Scan Software Version: 1.2(147)
Parameter List :
Instrument                        Cary Eclipse
Instrument Serial Number          EL00063371
Data mode                         Fluorescence
Scan mode                         Emission
X Mode                            Wavelength (nm)
Start (nm)                        520.00
Stop (nm)                         650.00
Ex. Wavelength (nm)               515.00
Ex. Slit (nm)                     5
Em. Slit (nm)                     5
Scan rate (nm/min)                600.00
Data interval (nm)                1.0000
Averaging Time (s)                0.1000
Excitation filter                 Auto
Emission filter                   Open
PMT voltage (V)                   490
Corrected spectra                 OFF
Multicell holder                  Multicell
Multi zero                       OFF
Method Log     :
Method Name    : Default
Date/Time stamp: 4/1/2025 9:14:35 AM
Method Modifications:
Overlayed Graphs Changed: 4/1/2025 9:16:26 AM, Old:OFF, New:ON
PMT Volts Changed: 4/1/2025 9:16:26 AM, Old:600, New:480
Cell Changer Changed: 4/1/2025 9:16:26 AM, Old:OFF, New:ON
Cell2 Changed: 4/1/2025 9:16:26 AM, Old:OFF, New:ON
Monitoring device: Changed: 4/1/2025 9:16:26 AM, Old:PCB 150, New:Block
User Delta Stop Changed: 4/1/2025 9:16:26 AM, Old: 450.00, New: 526.00
User Delta Increment Changed: 4/1/2025 9:16:26 AM, Old:  10.00, New:   0.15
Emission PMT (V): Changed: 4/1/2025 9:16:26 AM, Old: 600, New: 480
Excitation Wavelength Changed: 4/1/2025 9:16:26 AM, Old: 350.00, New: 526.00
Emission Wavelength Changed: 4/1/2025 9:16:26 AM, Old: 400.00, New: 535.00
Stop Wavelength Changed: 4/1/2025 9:16:26 AM, Old: 600.00, New: 650.00
Scan mode: Changed: 4/1/2025 9:17:18 AM, Old:Emission, New:Excitation
User Delta Stop Changed: 4/1/2025 9:17:18 AM, Old: 526.00, New: 555.00
Excitation Wavelength Changed: 4/1/2025 9:17:18 AM, Old: 526.00, New: 400.00
Emission Wavelength Changed: 4/1/2025 9:17:18 AM, Old: 535.00, New: 555.00
Stop Wavelength Changed: 4/1/2025 9:17:18 AM, Old: 650.00, New: 550.00
PMT Volts Changed: 4/1/2025 9:20:58 AM, Old:480, New:490
Scan mode: Changed: 4/1/2025 9:20:58 AM, Old:Excitation, New:Emission
Emission PMT (V): Changed: 4/1/2025 9:20:58 AM, Old: 480, New: 490
Excitation Wavelength Changed: 4/1/2025 9:20:58 AM, Old: 400.00, New: 526.00
Emission Wavelength Changed: 4/1/2025 9:20:58 AM, Old: 555.00, New: 535.00
Stop Wavelength Changed: 4/1/2025 9:20:58 AM, Old: 550.00, New: 650.00
Scan mode: Changed: 4/1/2025 9:22:17 AM, Old:Emission, New:Excitation
Excitation Wavelength Changed: 4/1/2025 9:22:17 AM, Old: 526.00, New: 400.00
Emission Wavelength Changed: 4/1/2025 9:22:17 AM, Old: 535.00, New: 555.00
Stop Wavelength Changed: 4/1/2025 9:22:17 AM, Old: 650.00, New: 550.00
Zero Mode Changed: 4/1/2025 9:27:29 AM, Old:OFF, New:Reading
Zero Mode Changed: 4/1/2025 9:27:29 AM, Old:Reading, New:ON
Scan mode: Changed: 4/1/2025 9:29:46 AM, Old:Excitation, New:Emission
Excitation Wavelength Changed: 4/1/2025 9:29:46 AM, Old: 400.00, New: 500.00
Emission Wavelength Changed: 4/1/2025 9:29:46 AM, Old: 555.00, New: 505.00
Stop Wavelength Changed: 4/1/2025 9:29:46 AM, Old: 550.00, New: 650.00
Sample2 Changed: 4/1/2025 9:30:34 AM, Old:Sample2, New:ecc_500
Excitation Wavelength Changed: 4/1/2025 9:37:32 AM, Old: 500.00, New: 510.00
Emission Wavelength Changed: 4/1/2025 9:37:32 AM, Old: 505.00, New: 515.00
Sample2 Changed: 4/1/2025 9:37:59 AM, Old:ecc_500, New:ecc_510
Excitation Wavelength Changed: 4/1/2025 9:40:38 AM, Old: 510.00, New: 520.00
Emission Wavelength Changed: 4/1/2025 9:40:38 AM, Old: 515.00, New: 525.00
Sample2 Changed: 4/1/2025 9:41:05 AM, Old:ecc_510, New:ecc_520
Excitation Wavelength Changed: 4/1/2025 9:42:10 AM, Old: 520.00, New: 490.00
Emission Wavelength Changed: 4/1/2025 9:42:10 AM, Old: 525.00, New: 495.00
Sample2 Changed: 4/1/2025 9:42:28 AM, Old:ecc_520, New:ecc_490
Excitation Wavelength Changed: 4/1/2025 9:43:42 AM, Old: 490.00, New: 530.00
Emission Wavelength Changed: 4/1/2025 9:43:42 AM, Old: 495.00, New: 535.00
Sample2 Changed: 4/1/2025 9:44:02 AM, Old:ecc_490, New:ecc_530
Excitation Wavelength Changed: 4/1/2025 9:44:50 AM, Old: 530.00, New: 526.00
Emission Wavelength Changed: 4/1/2025 9:44:50 AM, Old: 535.00, New: 531.00
Sample2 Changed: 4/1/2025 9:45:08 AM, Old:ecc_530, New:ecc_526
Excitation Wavelength Changed: 4/1/2025 9:45:50 AM, Old: 526.00, New: 480.00
Emission Wavelength Changed: 4/1/2025 9:45:50 AM, Old: 531.00, New: 485.00
Sample2 Changed: 4/1/2025 9:46:10 AM, Old:ecc_526, New:ecc_480
Excitation Wavelength Changed: 4/1/2025 9:46:49 AM, Old: 480.00, New: 470.00
Emission Wavelength Changed: 4/1/2025 9:46:49 AM, Old: 485.00, New: 475.00
Sample2 Changed: 4/1/2025 9:47:12 AM, Old:ecc_480, New:ecc_470
Excitation Wavelength Changed: 4/1/2025 9:48:04 AM, Old: 470.00, New: 515.00
Emission Wavelength Changed: 4/1/2025 9:48:04 AM, Old: 475.00, New: 520.00
Sample2 Changed: 4/1/2025 9:48:22 AM, Old:ecc_470, New:ecc_515
End Method Modifications

ecc_460,
ecc_460
Collection Time: 4/1/2025 9:49:23 AM
Operator Name  :
Scan Software Version: 1.2(147)
Parameter List :
Instrument                        Cary Eclipse
Instrument Serial Number          EL00063371
Data mode                         Fluorescence
Scan mode                         Emission
X Mode                            Wavelength (nm)
Start (nm)                        465.00
Stop (nm)                         650.00
Ex. Wavelength (nm)               460.00
Ex. Slit (nm)                     5
Em. Slit (nm)                     5
Scan rate (nm/min)                600.00
Data interval (nm)                1.0000
Averaging Time (s)                0.1000
Excitation filter                 Auto
Emission filter                   Open
PMT voltage (V)                   490
Corrected spectra                 OFF
Multicell holder                  Multicell
Multi zero                       OFF
Method Log     :
Method Name    : Default
Date/Time stamp: 4/1/2025 9:14:35 AM
Method Modifications:
Overlayed Graphs Changed: 4/1/2025 9:16:26 AM, Old:OFF, New:ON
PMT Volts Changed: 4/1/2025 9:16:26 AM, Old:600, New:480
Cell Changer Changed: 4/1/2025 9:16:26 AM, Old:OFF, New:ON
Cell2 Changed: 4/1/2025 9:16:26 AM, Old:OFF, New:ON
Monitoring device: Changed: 4/1/2025 9:16:26 AM, Old:PCB 150, New:Block
User Delta Stop Changed: 4/1/2025 9:16:26 AM, Old: 450.00, New: 526.00
User Delta Increment Changed: 4/1/2025 9:16:26 AM, Old:  10.00, New:   0.15
Emission PMT (V): Changed: 4/1/2025 9:16:26 AM, Old: 600, New: 480
Excitation Wavelength Changed: 4/1/2025 9:16:26 AM, Old: 350.00, New: 526.00
Emission Wavelength Changed: 4/1/2025 9:16:26 AM, Old: 400.00, New: 535.00
Stop Wavelength Changed: 4/1/2025 9:16:26 AM, Old: 600.00, New: 650.00
Scan mode: Changed: 4/1/2025 9:17:18 AM, Old:Emission, New:Excitation
User Delta Stop Changed: 4/1/2025 9:17:18 AM, Old: 526.00, New: 555.00
Excitation Wavelength Changed: 4/1/2025 9:17:18 AM, Old: 526.00, New: 400.00
Emission Wavelength Changed: 4/1/2025 9:17:18 AM, Old: 535.00, New: 555.00
Stop Wavelength Changed: 4/1/2025 9:17:18 AM, Old: 650.00, New: 550.00
PMT Volts Changed: 4/1/2025 9:20:58 AM, Old:480, New:490
Scan mode: Changed: 4/1/2025 9:20:58 AM, Old:Excitation, New:Emission
Emission PMT (V): Changed: 4/1/2025 9:20:58 AM, Old: 480, New: 490
Excitation Wavelength Changed: 4/1/2025 9:20:58 AM, Old: 400.00, New: 526.00
Emission Wavelength Changed: 4/1/2025 9:20:58 AM, Old: 555.00, New: 535.00
Stop Wavelength Changed: 4/1/2025 9:20:58 AM, Old: 550.00, New: 650.00
Scan mode: Changed: 4/1/2025 9:22:17 AM, Old:Emission, New:Excitation
Excitation Wavelength Changed: 4/1/2025 9:22:17 AM, Old: 526.00, New: 400.00
Emission Wavelength Changed: 4/1/2025 9:22:17 AM, Old: 535.00, New: 555.00
Stop Wavelength Changed: 4/1/2025 9:22:17 AM, Old: 650.00, New: 550.00
Zero Mode Changed: 4/1/2025 9:27:29 AM, Old:OFF, New:Reading
Zero Mode Changed: 4/1/2025 9:27:29 AM, Old:Reading, New:ON
Scan mode: Changed: 4/1/2025 9:29:46 AM, Old:Excitation, New:Emission
Excitation Wavelength Changed: 4/1/2025 9:29:46 AM, Old: 400.00, New: 500.00
Emission Wavelength Changed: 4/1/2025 9:29:46 AM, Old: 555.00, New: 505.00
Stop Wavelength Changed: 4/1/2025 9:29:46 AM, Old: 550.00, New: 650.00
Sample2 Changed: 4/1/2025 9:30:34 AM, Old:Sample2, New:ecc_500
Excitation Wavelength Changed: 4/1/2025 9:37:32 AM, Old: 500.00, New: 510.00
Emission Wavelength Changed: 4/1/2025 9:37:32 AM, Old: 505.00, New: 515.00
Sample2 Changed: 4/1/2025 9:37:59 AM, Old:ecc_500, New:ecc_510
Excitation Wavelength Changed: 4/1/2025 9:40:38 AM, Old: 510.00, New: 520.00
Emission Wavelength Changed: 4/1/2025 9:40:38 AM, Old: 515.00, New: 525.00
Sample2 Changed: 4/1/2025 9:41:05 AM, Old:ecc_510, New:ecc_520
Excitation Wavelength Changed: 4/1/2025 9:42:10 AM, Old: 520.00, New: 490.00
Emission Wavelength Changed: 4/1/2025 9:42:10 AM, Old: 525.00, New: 495.00
Sample2 Changed: 4/1/2025 9:42:28 AM, Old:ecc_520, New:ecc_490
Excitation Wavelength Changed: 4/1/2025 9:43:42 AM, Old: 490.00, New: 530.00
Emission Wavelength Changed: 4/1/2025 9:43:42 AM, Old: 495.00, New: 535.00
Sample2 Changed: 4/1/2025 9:44:02 AM, Old:ecc_490, New:ecc_530
Excitation Wavelength Changed: 4/1/2025 9:44:50 AM, Old: 530.00, New: 526.00
Emission Wavelength Changed: 4/1/2025 9:44:50 AM, Old: 535.00, New: 531.00
Sample2 Changed: 4/1/2025 9:45:08 AM, Old:ecc_530, New:ecc_526
Excitation Wavelength Changed: 4/1/2025 9:45:50 AM, Old: 526.00, New: 480.00
Emission Wavelength Changed: 4/1/2025 9:45:50 AM, Old: 531.00, New: 485.00
Sample2 Changed: 4/1/2025 9:46:10 AM, Old:ecc_526, New:ecc_480
Excitation Wavelength Changed: 4/1/2025 9:46:49 AM, Old: 480.00, New: 470.00
Emission Wavelength Changed: 4/1/2025 9:46:49 AM, Old: 485.00, New: 475.00
Sample2 Changed: 4/1/2025 9:47:12 AM, Old:ecc_480, New:ecc_470
Excitation Wavelength Changed: 4/1/2025 9:48:04 AM, Old: 470.00, New: 515.00
Emission Wavelength Changed: 4/1/2025 9:48:04 AM, Old: 475.00, New: 520.00
Sample2 Changed: 4/1/2025 9:48:22 AM, Old:ecc_470, New:ecc_515
Excitation Wavelength Changed: 4/1/2025 9:49:03 AM, Old: 515.00, New: 460.00
Emission Wavelength Changed: 4/1/2025 9:49:03 AM, Old: 520.00, New: 465.00
Sample2 Changed: 4/1/2025 9:49:23 AM, Old:ecc_515, New:ecc_460
End Method Modifications

