500V,,550V,,600V,,650V,,700V,,750V,,800V,,775V,,725V,,790V,,
Wavelength (nm),Intensity (a.u.),Wavelength (nm),Intensity (a.u.),Wavelength (nm),Intensity (a.u.),Wavelength (nm),Intensity (a.u.),Wavelength (nm),Intensity (a.u.),Wavelength (nm),Intensity (a.u.),Wavelength (nm),Intensity (a.u.),Wavelength (nm),Intensity (a.u.),Wavelength (nm),Intensity (a.u.),Wavelength (nm),Intensity (a.u.),
534.9199829,5.991837978,534.9199829,14.97719002,534.9199829,34.50292969,534.9199829,70.54457855,534.9199829,141.1890869,534.9199829,269.6238403,534.9199829,483.0584717,534.9199829,354.9984131,534.9199829,190.3726196,534.9199829,410.4612732,
535.9699707,6.429268837,535.9699707,16.18305206,535.9699707,37.36021423,535.9699707,75.62236023,535.9699707,151.8224945,535.9699707,289.9633484,535.9699707,524.5178833,535.9699707,386.9249573,535.9699707,206.0055237,535.9699707,445.8170471,
536.8599854,6.83506155,536.8599854,17.38749695,536.8599854,40.46052551,536.8599854,80.44435883,536.8599854,164.9179993,536.8599854,310.4591675,536.8599854,563.6977539,536.8599854,416.3120117,536.8599854,221.7714081,536.8599854,474.4666138,
537.9099731,7.438537598,537.9099731,18.69979095,537.9099731,43.25125885,537.9099731,86.69801331,537.9099731,174.2340851,537.9099731,340.3883362,537.9099731,612.3791504,537.9099731,448.4309387,537.9099731,237.5077362,537.9099731,518.0110474,
538.9500122,8.04562664,538.9500122,20.26881981,538.9500122,46.88565063,538.9500122,94.41873169,538.9500122,191.6642609,538.9500122,364.7006226,538.9500122,662.5287476,538.9500122,485.1540222,538.9500122,260.9835815,538.9500122,550.7886353,
539.8499756,8.417955399,539.8499756,21.38793564,539.8499756,49.1024704,539.8499756,99.82109833,539.8499756,201.2459412,539.8499756,384.8100891,539.8499756,697.2397461,539.8499756,509.4655151,539.8499756,275.4220276,539.8499756,582.1539917,
540.8900146,9.004926682,540.8900146,22.56415749,540.8900146,52.46079254,540.8900146,106.257782,540.8900146,213.7174683,540.8900146,403.7270813,540.8900146,743.7050781,540.8900146,538.8299561,540.8900146,291.2079773,540.8900146,628.8665161,
541.9400024,9.436075211,541.9400024,23.7262249,541.9400024,55.63528061,541.9400024,112.1595459,541.9400024,225.9555664,541.9400024,429.8934631,541.9400024,780.1659546,541.9400024,563.8705444,541.9400024,307.7535095,541.9400024,650.4622192,
542.8300171,9.883827209,542.8300171,24.56545067,542.8300171,57.2444458,542.8300171,114.9282455,542.8300171,233.0109406,542.8300171,442.388916,542.8300171,805.6112061,542.8300171,587.0459595,542.8300171,315.8070679,542.8300171,681.2474976,
543.8800049,10.15210342,543.8800049,25.68839836,543.8800049,59.46141815,543.8800049,120.4903336,543.8800049,243.0785675,543.8800049,463.2556152,543.8800049,838.3040161,543.8800049,608.5491943,543.8800049,325.3699036,543.8800049,710.9159546,
544.9199829,10.40992641,544.9199829,26.60880852,544.9199829,61.67467499,544.9199829,123.2701187,544.9199829,252.0875092,544.9199829,474.4924622,544.9199829,875.4445801,544.9199829,632.4865112,544.9199829,341.4211731,544.9199829,730.0326538,
545.9699707,10.9282074,545.9699707,27.73639107,545.9699707,62.8035202,545.9699707,127.0029678,545.9699707,261.2084656,545.9699707,493.482605,545.9699707,886.9171143,545.9699707,653.4022217,545.9699707,351.128418,545.9699707,752.9428101,
546.8599854,10.99876595,546.8599854,27.6464138,546.8599854,63.76066208,546.8599854,129.5526276,546.8599854,259.8591919,546.8599854,501.9797058,546.8599854,903.5529175,546.8599854,665.7844849,546.8599854,354.8244934,546.8599854,771.4262695,
547.9099731,11.25426197,547.9099731,28.39554977,547.9099731,65.01511383,547.9099731,131.6762848,547.9099731,267.20047,547.9099731,514.166748,547.9099731,934.2268066,547.9099731,665.2855225,547.9099731,361.101593,547.9099731,782.4803467,
548.9500122,11.26712894,548.9500122,28.89757156,548.9500122,65.82587433,548.9500122,133.3694458,548.9500122,269.9537048,548.9500122,514.8632813,548.9500122,928.2902222,548.9500122,677.5758667,548.9500122,363.5712891,548.9500122,783.2476807,
549.8499756,11.21682262,549.8499756,28.81351852,549.8499756,66.43860626,549.8499756,132.9289093,549.8499756,270.8323364,549.8499756,520.4689331,549.8499756,939.2089233,549.8499756,681.5437622,549.8499756,368.638916,549.8499756,790.763916,
550.8800049,11.48304558,550.8800049,28.92152596,550.8800049,66.36416626,550.8800049,133.2800903,550.8800049,272.6321106,550.8800049,516.9503174,550.8800049,942.0973511,550.8800049,685.4526978,550.8800049,371.3753967,550.8800049,794.5101318,
551.9099731,11.34515285,551.9099731,28.82979774,551.9099731,67.00215149,551.9099731,134.3856812,551.9099731,271.8941956,551.9099731,518.0012207,551.9099731,940.8607178,551.9099731,684.0930176,551.9099731,368.7585144,551.9099731,788.9707642,
552.9400024,11.26642227,552.9400024,28.82314491,552.9400024,66.5713501,552.9400024,133.7900085,552.9400024,269.8446045,552.9400024,514.8726196,552.9400024,933.817749,552.9400024,675.0526123,552.9400024,363.119812,552.9400024,787.274353,
553.9699707,11.09071636,553.9699707,28.45656967,553.9699707,65.6667099,553.9699707,132.7119598,553.9699707,266.3574219,553.9699707,510.7984009,553.9699707,920.7686157,553.9699707,672.6447754,553.9699707,360.9369202,553.9699707,772.4192505,
554.8499756,10.99131584,554.8499756,27.99546242,554.8499756,64.80303192,554.8499756,130.0819855,554.8499756,265.206543,554.8499756,504.3309326,554.8499756,914.1621704,554.8499756,655.1679688,554.8499756,359.4333191,554.8499756,765.0005493,
555.8800049,10.83380413,555.8800049,27.157938,555.8800049,64.38791656,555.8800049,128.2246704,555.8800049,261.6253052,555.8800049,495.5902405,555.8800049,903.149292,555.8800049,654.2574463,555.8800049,351.2519836,555.8800049,750.0194702,
556.9099731,10.52892876,556.9099731,27.18950081,556.9099731,62.22014999,556.9099731,125.6075516,556.9099731,258.1360168,556.9099731,485.2079163,556.9099731,878.2869263,556.9099731,643.7627563,556.9099731,346.1817627,556.9099731,747.8474121,
557.9400024,10.39809322,557.9400024,26.29541016,557.9400024,61.23504257,557.9400024,122.5938416,557.9400024,251.4636841,557.9400024,474.6418152,557.9400024,859.7185669,557.9400024,626.7252197,557.9400024,336.0172119,557.9400024,723.4113159,
558.9699707,10.21701145,558.9699707,25.69310379,558.9699707,59.34931564,558.9699707,118.803894,558.9699707,242.2260742,558.9699707,459.9643555,558.9699707,840.8679199,558.9699707,616.3289795,558.9699707,327.418396,558.9699707,708.9627075,
559.8499756,9.871939659,559.8499756,24.84826851,559.8499756,57.16016769,559.8499756,117.5859833,559.8499756,236.7684784,559.8499756,450.7453308,559.8499756,825.2008057,559.8499756,594.7972412,559.8499756,319.2866821,559.8499756,690.3339844,
560.8900146,9.597940445,560.8900146,24.3274231,560.8900146,56.23155212,560.8900146,113.7872772,560.8900146,227.9047394,560.8900146,436.2772217,560.8900146,796.7432861,560.8900146,580.3052979,560.8900146,308.6565247,560.8900146,667.3045044,
561.9400024,9.483730316,561.9400024,23.65354729,561.9400024,54.89323425,561.9400024,110.7462921,561.9400024,223.0188599,561.9400024,423.1120605,561.9400024,779.593689,561.9400024,564.8775024,561.9400024,303.0584412,561.9400024,652.4378052,
562.8300171,9.091711998,562.8300171,22.97281075,562.8300171,52.86561203,562.8300171,106.9531403,562.8300171,214.1262665,562.8300171,413.4378967,562.8300171,750.3936768,562.8300171,549.4267578,562.8300171,297.0870056,562.8300171,633.8807373,
563.8800049,8.785665512,563.8800049,22.09606743,563.8800049,51.04647446,563.8800049,103.431778,563.8800049,209.8410339,563.8800049,397.2306519,563.8800049,721.3131714,563.8800049,527.7433472,563.8800049,282.0466309,563.8800049,608.9163208,
564.9199829,8.498617172,564.9199829,21.38628006,564.9199829,49.02534103,564.9199829,100.7364044,564.9199829,200.6464539,564.9199829,385.56604,564.9199829,705.4267578,564.9199829,511.8109436,564.9199829,274.9147034,564.9199829,587.9817505,
565.9699707,8.113054276,565.9699707,20.48338127,565.9699707,47.41065216,565.9699707,96.47653961,565.9699707,195.1417847,565.9699707,367.6551514,565.9699707,664.3754883,565.9699707,489.6589355,565.9699707,260.7617188,565.9699707,567.7059937,
566.8599854,7.825989246,566.8599854,19.80307388,566.8599854,46.03569794,566.8599854,92.31287384,566.8599854,185.7121582,566.8599854,358.696167,566.8599854,649.3307495,566.8599854,470.9020386,566.8599854,251.2556305,566.8599854,546.1835938,
567.9099731,7.625087261,567.9099731,19.16704559,567.9099731,44.04875565,567.9099731,89.56415558,567.9099731,179.336792,567.9099731,344.7766113,567.9099731,632.4837646,567.9099731,453.2400513,567.9099731,243.616806,567.9099731,516.3538208,
568.9500122,7.271324158,568.9500122,18.46483612,568.9500122,42.240242,568.9500122,86.14015198,568.9500122,173.6140442,568.9500122,329.6206665,568.9500122,600.5975952,568.9500122,437.08078,568.9500122,237.2750854,568.9500122,505.2114258,
569.8499756,7.026508808,569.8499756,17.89903641,569.8499756,40.78406143,569.8499756,80.82159424,569.8499756,166.8335419,569.8499756,320.2107849,569.8499756,581.6022949,569.8499756,421.3832703,569.8499756,222.7733154,569.8499756,484.9220886,
570.8800049,6.753706455,570.8800049,17.00250053,570.8800049,38.75762177,570.8800049,78.90037537,570.8800049,158.6443024,570.8800049,302.8947754,570.8800049,554.0241089,570.8800049,409.0293274,570.8800049,215.8978882,570.8800049,464.8032227,
571.9099731,6.416623116,571.9099731,16.37799263,571.9099731,37.4338913,571.9099731,74.60427094,571.9099731,154.6356049,571.9099731,291.0456543,571.9099731,529.0703735,571.9099731,388.6037598,571.9099731,208.8176575,571.9099731,447.3709412,
572.9400024,6.217787743,572.9400024,15.68910885,572.9400024,36.01903152,572.9400024,71.84631348,572.9400024,147.7921906,572.9400024,281.6889343,572.9400024,511.5476379,572.9400024,370.7879944,572.9400024,199.2592926,572.9400024,428.176178,
573.9699707,5.90606308,573.9699707,14.79683495,573.9699707,34.93154144,573.9699707,69.71682739,573.9699707,139.6127167,573.9699707,268.0657654,573.9699707,489.5230408,573.9699707,358.6558228,573.9699707,191.360199,573.9699707,405.3399353,
574.8499756,5.767329693,574.8499756,14.32849503,574.8499756,33.07255173,574.8499756,66.73188019,574.8499756,135.036499,574.8499756,261.2861938,574.8499756,470.2007141,574.8499756,341.4467163,574.8499756,185.1975403,574.8499756,394.3516235,
575.8800049,5.415509224,575.8800049,13.89857864,575.8800049,31.87674713,575.8800049,65.38339996,575.8800049,131.9084778,575.8800049,244.1985321,575.8800049,450.6335449,575.8800049,327.3995361,575.8800049,175.1436005,575.8800049,374.4048462,
576.9099731,5.284583569,576.9099731,13.4195013,576.9099731,30.61533737,576.9099731,61.47841263,576.9099731,122.3212433,576.9099731,235.7870789,576.9099731,432.4677124,576.9099731,315.6748657,576.9099731,168.2590942,576.9099731,361.6828308,
577.9400024,4.992466927,577.9400024,12.75409031,577.9400024,28.74938583,577.9400024,58.63225555,577.9400024,119.0738602,577.9400024,228.8918915,577.9400024,413.6557007,577.9400024,305.5766602,577.9400024,160.6943054,577.9400024,346.1622314,
578.9699707,4.867619991,578.9699707,12.20609856,578.9699707,28.0626564,578.9699707,56.26033783,578.9699707,115.6314316,578.9699707,216.4057159,578.9699707,396.0735779,578.9699707,289.3717346,578.9699707,155.7105408,578.9699707,331.6142578,
579.8499756,4.692341328,579.8499756,11.79854965,579.8499756,26.67556953,579.8499756,54.09249878,579.8499756,109.5715561,579.8499756,210.2256622,579.8499756,385.8275757,579.8499756,285.3402405,579.8499756,151.5724182,579.8499756,321.3322754,
580.8900146,4.440627098,580.8900146,11.36036682,580.8900146,26.25858688,580.8900146,52.26363754,580.8900146,108.0545425,580.8900146,201.1052551,580.8900146,367.888916,580.8900146,265.7561035,580.8900146,143.6781311,580.8900146,310.1463318,
581.9400024,4.266918659,581.9400024,10.99735832,581.9400024,24.73782349,581.9400024,50.46273804,581.9400024,102.2835846,581.9400024,196.4809418,581.9400024,351.3687134,581.9400024,258.6702271,581.9400024,138.3167877,581.9400024,301.9807434,
582.8300171,4.181316376,582.8300171,10.63829708,582.8300171,24.59139252,582.8300171,48.25454712,582.8300171,100.0247269,582.8300171,188.1383057,582.8300171,340.5403442,582.8300171,249.7397766,582.8300171,134.4245453,582.8300171,285.6852417,
583.8800049,4.076152802,583.8800049,10.0454464,583.8800049,23.38892365,583.8800049,47.37889862,583.8800049,94.91835022,583.8800049,180.3243866,583.8800049,329.4173889,583.8800049,238.9982758,583.8800049,130.3406525,583.8800049,279.3497314,
584.9199829,3.916456461,584.9199829,9.780097008,584.9199829,22.48490334,584.9199829,45.61252213,584.9199829,93.26783752,584.9199829,175.3279266,584.9199829,316.2701111,584.9199829,232.4158783,584.9199829,124.8835068,584.9199829,269.2185059,
585.9699707,3.773607254,585.9699707,9.626310349,585.9699707,21.81813812,585.9699707,43.93092346,585.9699707,88.6703949,585.9699707,168.9116974,585.9699707,308.3453369,585.9699707,220.7839203,585.9699707,121.0657883,585.9699707,257.6054382,
586.8599854,3.631397963,586.8599854,9.182667732,586.8599854,21.21841431,586.8599854,42.32606506,586.8599854,85.54962158,586.8599854,164.1167145,586.8599854,298.1446533,586.8599854,216.8321075,586.8599854,118.1893005,586.8599854,247.1874084,
587.9099731,3.544587612,587.9099731,8.845352173,587.9099731,20.18689346,587.9099731,42.04982376,587.9099731,85.00344849,587.9099731,159.511322,587.9099731,289.2680054,587.9099731,212.5302887,587.9099731,114.4067307,587.9099731,242.1939545,
588.9500122,3.371494055,588.9500122,8.612783432,588.9500122,19.34060097,588.9500122,40.53702927,588.9500122,79.99299622,588.9500122,153.411377,588.9500122,279.7601318,588.9500122,200.3645325,588.9500122,109.2138367,588.9500122,233.7921906,
589.8499756,3.338689566,589.8499756,8.113121986,589.8499756,18.78064156,589.8499756,38.63245392,589.8499756,78.64749908,589.8499756,150.2230377,589.8499756,271.4585876,589.8499756,199.0409546,589.8499756,107.8564987,589.8499756,227.9809265,
590.8800049,3.271923304,590.8800049,8.14296627,590.8800049,18.29930115,590.8800049,37.64793777,590.8800049,76.81182098,590.8800049,145.4566803,590.8800049,257.3721924,590.8800049,191.60466,590.8800049,104.9626923,590.8800049,219.0336304,
591.9099731,3.098410845,591.9099731,7.817402363,591.9099731,18.03974342,591.9099731,36.32640457,591.9099731,72.58818817,591.9099731,139.4075928,591.9099731,254.0048065,591.9099731,186.2867279,591.9099731,99.27648926,591.9099731,213.9247742,
592.9400024,3.078349352,592.9400024,7.547492027,592.9400024,17.4923439,592.9400024,35.21670532,592.9400024,71.15075684,592.9400024,134.8012695,592.9400024,249.7799683,592.9400024,179.6269379,592.9400024,95.55180359,592.9400024,204.6465454,
593.9699707,2.943544388,593.9699707,7.364600182,593.9699707,16.73859024,593.9699707,34.03891754,593.9699707,69.04351807,593.9699707,129.3211823,593.9699707,242.4624023,593.9699707,174.1226044,593.9699707,93.18663025,593.9699707,201.2777252,
594.8499756,2.837134838,594.8499756,7.180797577,594.8499756,16.74272346,594.8499756,33.44175339,594.8499756,67.17544556,594.8499756,126.8821945,594.8499756,234.1663818,594.8499756,169.9026489,594.8499756,91.38114166,594.8499756,193.8487701,
595.8800049,2.725306749,595.8800049,6.883486748,595.8800049,15.93150711,595.8800049,32.22569656,595.8800049,65.61399078,595.8800049,122.452774,595.8800049,225.1229095,595.8800049,162.8318787,595.8800049,86.87057495,595.8800049,190.6593628,
596.9099731,2.629883766,596.9099731,6.769915581,596.9099731,15.15937138,596.9099731,31.11649132,596.9099731,62.21014404,596.9099731,118.2669449,596.9099731,214.0721893,596.9099731,158.8546295,596.9099731,85.88218689,596.9099731,182.0721893,
597.9400024,2.571501017,597.9400024,6.389222622,597.9400024,14.86488056,597.9400024,29.58363152,597.9400024,60.13089371,597.9400024,114.2802429,597.9400024,208.8302155,597.9400024,154.3849487,597.9400024,80.12110901,597.9400024,176.7420502,
598.9699707,2.4376719,598.9699707,6.280233383,598.9699707,14.26657295,598.9699707,29.28139687,598.9699707,59.13917923,598.9699707,110.3464127,598.9699707,205.7026215,598.9699707,149.3135986,598.9699707,80.33965302,598.9699707,171.4101105,
599.8499756,2.482232094,599.8499756,6.073215485,599.8499756,13.90124035,599.8499756,28.03331566,599.8499756,58.61003876,599.8499756,107.7341766,599.8499756,196.3803101,599.8499756,144.9483337,599.8499756,76.54990387,599.8499756,168.8578796,
600.8599854,2.429945946,600.8599854,5.954459667,600.8599854,13.63531303,600.8599854,28.02985954,600.8599854,54.36828613,600.8599854,106.8801498,600.8599854,190.0380249,600.8599854,137.2367096,600.8599854,76.19425201,600.8599854,160.1460419,
601.8800049,2.261229753,601.8800049,5.584998608,601.8800049,13.08548832,601.8800049,26.22166252,601.8800049,52.21784973,601.8800049,100.576622,601.8800049,184.5630798,601.8800049,133.8676453,601.8800049,71.7250061,601.8800049,154.1391602,
602.8900146,2.201466084,602.8900146,5.551991463,602.8900146,12.55910206,602.8900146,25.32830238,602.8900146,52.07210159,602.8900146,96.935112,602.8900146,178.4990845,602.8900146,131.1052246,602.8900146,68.55408478,602.8900146,151.0202942,
603.9099731,2.080995321,603.9099731,5.32414484,603.9099731,11.91236591,603.9099731,24.58070374,603.9099731,50.09405136,603.9099731,94.16110992,603.9099731,171.425827,603.9099731,124.967926,603.9099731,66.70172882,603.9099731,144.8381042,
604.9199829,1.999906778,604.9199829,5.072954178,604.9199829,11.70628548,604.9199829,23.66920471,604.9199829,48.36647415,604.9199829,89.71009827,604.9199829,165.9411469,604.9199829,119.6135101,604.9199829,64.57315063,604.9199829,138.5488129,
605.9400024,1.974655509,605.9400024,5.031960487,605.9400024,11.1782093,605.9400024,22.52215004,605.9400024,46.23426437,605.9400024,86.01096344,605.9400024,157.8747253,605.9400024,115.0690613,605.9400024,61.8823967,605.9400024,131.6645355,
606.9500122,1.850880265,606.9500122,4.711196899,606.9500122,10.85256863,606.9500122,21.47388077,606.9500122,44.60238647,606.9500122,84.66340637,606.9500122,152.6824493,606.9500122,109.3354492,606.9500122,59.5672493,606.9500122,127.9896774,
607.9699707,1.791174889,607.9699707,4.620921135,607.9699707,10.24350548,607.9699707,20.90058136,607.9699707,42.06774902,607.9699707,80.47312164,607.9699707,146.4040375,607.9699707,107.8426132,607.9699707,56.7844696,607.9699707,123.8694839,
608.8400269,1.696942568,608.8400269,4.431688786,608.8400269,9.870743752,608.8400269,20.18787003,608.8400269,41.07226563,608.8400269,78.84963226,608.8400269,138.9434052,608.8400269,104.4286575,608.8400269,54.84244537,608.8400269,118.8267822,
609.8499756,1.688832641,609.8499756,4.196704388,609.8499756,9.482315063,609.8499756,19.44071579,609.8499756,38.67050171,609.8499756,73.82598877,609.8499756,138.3506165,609.8499756,98.64984131,609.8499756,53.56575394,609.8499756,115.4743805,
610.8800049,1.632312894,610.8800049,4.130321026,610.8800049,9.33612442,610.8800049,18.72154999,610.8800049,37.32456589,610.8800049,71.55257416,610.8800049,131.3772278,610.8800049,94.39706421,610.8800049,51.84508896,610.8800049,108.7018051,
611.9099731,1.554748535,611.9099731,3.857171059,611.9099731,9.007787704,611.9099731,17.80764008,611.9099731,36.74999237,611.9099731,68.1028595,611.9099731,126.757843,611.9099731,92.25525665,611.9099731,48.14354706,611.9099731,105.3852234,
612.9400024,1.482566595,612.9400024,3.739035368,612.9400024,8.604397774,612.9400024,17.01349449,612.9400024,34.90520096,612.9400024,67.79489899,612.9400024,122.4105606,612.9400024,87.39205933,612.9400024,48.24607086,612.9400024,99.8529129,
613.9699707,1.425052643,613.9699707,3.528857946,613.9699707,8.188957214,613.9699707,16.83817291,613.9699707,33.8901825,613.9699707,62.80715179,613.9699707,115.9389496,613.9699707,83.36869812,613.9699707,45.03614044,613.9699707,96.66322327,
614.8499756,1.38765645,614.8499756,3.353928566,614.8499756,7.907557487,614.8499756,15.53270149,614.8499756,32.00627899,614.8499756,60.89216995,614.8499756,111.4687119,614.8499756,80.74855042,614.8499756,45.44288254,614.8499756,93.23356628,
615.8800049,1.334175944,615.8800049,3.372029066,615.8800049,7.419965267,615.8800049,15.20161438,615.8800049,31.2286644,615.8800049,59.38108063,615.8800049,108.5792999,615.8800049,77.35433197,615.8800049,41.45710754,615.8800049,90.62369537,
616.9099731,1.282976985,616.9099731,3.213577986,616.9099731,7.489723206,616.9099731,14.38840389,616.9099731,29.69909477,616.9099731,55.99952698,616.9099731,104.9835739,616.9099731,74.18282318,616.9099731,40.04828262,616.9099731,85.44831848,
617.9400024,1.214529514,617.9400024,3.074125767,617.9400024,6.908742428,617.9400024,14.05437374,617.9400024,27.57354164,617.9400024,53.09143448,617.9400024,97.33546448,617.9400024,71.00268555,617.9400024,39.05069733,617.9400024,83.13043213,
618.9699707,1.165251017,618.9699707,2.941523314,618.9699707,6.696469784,618.9699707,13.3656683,618.9699707,26.88610458,618.9699707,50.47576523,618.9699707,92.78038025,618.9699707,68.18321228,618.9699707,36.51326752,618.9699707,76.17702484,
619.8499756,1.123154759,619.8499756,2.676528454,619.8499756,6.468444347,619.8499756,12.58557606,619.8499756,25.48373222,619.8499756,49.28969193,619.8499756,88.54343414,619.8499756,65.3832016,619.8499756,35.34123611,619.8499756,74.99532318,
620.8800049,1.049699783,620.8800049,2.639696121,620.8800049,6.199514866,620.8800049,12.06351566,620.8800049,24.24307632,620.8800049,46.62261581,620.8800049,87.30713654,620.8800049,61.1537323,620.8800049,33.58202362,620.8800049,71.65908051,
621.9099731,1.01309824,621.9099731,2.544784546,621.9099731,5.914287567,621.9099731,11.27441216,621.9099731,24.11010361,621.9099731,44.3654747,621.9099731,81.43402863,621.9099731,58.89733124,621.9099731,32.10673141,621.9099731,67.91888428,
622.9400024,0.985101819,622.9400024,2.328947306,622.9400024,5.440404892,622.9400024,11.04768944,622.9400024,22.25595284,622.9400024,41.98238754,622.9400024,77.29197693,622.9400024,60.33743668,622.9400024,30.04348373,622.9400024,66.62405396,
623.9699707,0.9559891224,623.9699707,2.412364006,623.9699707,5.350776672,623.9699707,10.70461655,623.9699707,21.92392349,623.9699707,40.63026428,623.9699707,74.00285339,623.9699707,53.99705887,623.9699707,29.5681591,623.9699707,63.95541763,
624.8499756,0.9088802934,624.8499756,2.18137598,624.8499756,5.096808434,624.8499756,10.10130501,624.8499756,20.5084877,624.8499756,38.3191452,624.8499756,69.74256897,624.8499756,52.68598557,624.8499756,28.8189621,624.8499756,62.03991318,
625.8800049,0.856908083,625.8800049,2.159421206,625.8800049,4.837619781,625.8800049,9.756736755,625.8800049,19.46912003,625.8800049,36.83344269,625.8800049,68.42803192,625.8800049,49.97523499,625.8800049,27.18960953,625.8800049,58.78273392,
626.9099731,0.8402037621,626.9099731,2.006107092,626.9099731,4.615681171,626.9099731,9.579728127,626.9099731,19.78976059,626.9099731,35.45656586,626.9099731,67.53749847,626.9099731,47.74521637,626.9099731,25.65505791,626.9099731,53.83539581,
627.9400024,0.7869277596,627.9400024,1.958315015,627.9400024,4.449927807,627.9400024,9.116586685,627.9400024,18.19913673,627.9400024,33.80295181,627.9400024,63.16776657,627.9400024,44.97370148,627.9400024,25.15418625,627.9400024,53.50446701,
628.9699707,0.7581147552,628.9699707,1.854218721,628.9699707,4.140987873,628.9699707,8.531846046,628.9699707,17.0086937,628.9699707,33.34571838,628.9699707,57.81212616,628.9699707,45.02989578,628.9699707,23.32166862,628.9699707,48.75103378,
629.8499756,0.7573845387,629.8499756,1.787598133,629.8499756,3.898040056,629.8499756,8.287225723,629.8499756,16.83592224,629.8499756,30.92012215,629.8499756,55.54011917,629.8499756,42.56510162,629.8499756,22.10328674,629.8499756,47.8053093,
630.8599854,0.7123807073,630.8599854,1.750970364,630.8599854,3.84975028,630.8599854,7.818993092,630.8599854,15.47794151,630.8599854,29.70095825,630.8599854,54.58974838,630.8599854,41.68525696,630.8599854,21.16817474,630.8599854,44.11045456,
631.8800049,0.6552847624,631.8800049,1.541434884,631.8800049,3.723022223,631.8800049,7.280935287,631.8800049,14.65816307,631.8800049,29.01343727,631.8800049,50.7947464,631.8800049,37.94387817,631.8800049,20.85323334,631.8800049,44.55962753,
632.8900146,0.5939210653,632.8900146,1.499785304,632.8900146,3.521924257,632.8900146,7.245821953,632.8900146,14.87471008,632.8900146,27.74490738,632.8900146,50.88687134,632.8900146,36.74042892,632.8900146,19.09277916,632.8900146,40.40042877,
633.9099731,0.589355886,633.9099731,1.42838037,633.9099731,3.4430511,633.9099731,6.781451702,633.9099731,13.89585495,633.9099731,25.65545654,633.9099731,45.88258743,633.9099731,34.71356964,633.9099731,18.96006584,633.9099731,39.45613098,
634.9199829,0.5843949318,634.9199829,1.422416568,634.9199829,3.210024595,634.9199829,6.258376598,634.9199829,13.00968552,634.9199829,25.65237808,634.9199829,46.4833107,634.9199829,34.35284805,634.9199829,18.11625862,634.9199829,38.909935,
635.9400024,0.5705150366,635.9400024,1.34933424,635.9400024,3.133861542,635.9400024,6.282629013,635.9400024,12.56061459,635.9400024,23.61518478,635.9400024,42.24816513,635.9400024,32.46165085,635.9400024,16.85665131,635.9400024,37.85868835,
636.9500122,0.5695645213,636.9500122,1.243461609,636.9500122,2.939478874,636.9500122,6.029942036,636.9500122,11.86447048,636.9500122,23.1525631,636.9500122,41.7264328,636.9500122,29.92540741,636.9500122,16.2187748,636.9500122,33.75899506,
637.9699707,0.5461881757,637.9699707,1.180685878,637.9699707,2.855277061,637.9699707,5.754255295,637.9699707,11.71449566,637.9699707,22.19947624,637.9699707,41.70092773,637.9699707,28.20641518,637.9699707,14.74670887,637.9699707,32.37582779,
638.8400269,0.4661041796,638.8400269,1.189304709,638.8400269,2.766496897,638.8400269,5.308848858,638.8400269,10.87757301,638.8400269,20.62471581,638.8400269,39.66807938,638.8400269,28.17888451,638.8400269,15.13729,638.8400269,31.99085999,
639.8499756,0.4616805315,639.8499756,1.140411735,639.8499756,2.647629023,639.8499756,5.182952404,639.8499756,10.77252007,639.8499756,19.9824543,639.8499756,36.44338989,639.8499756,26.885849,639.8499756,14.73753643,639.8499756,30.04019165,
640.8599854,0.471555531,640.8599854,1.105583191,640.8599854,2.540671587,640.8599854,5.04080677,640.8599854,10.28099823,640.8599854,18.36932373,640.8599854,36.51501846,640.8599854,24.48757553,640.8599854,13.57904339,640.8599854,28.7495079,
641.8800049,0.4385809004,641.8800049,1.092339039,641.8800049,2.390686035,641.8800049,4.926855564,641.8800049,9.769115448,641.8800049,18.37822151,641.8800049,33.10808563,641.8800049,24.55375862,641.8800049,12.55580044,641.8800049,28.57991982,
642.8900146,0.3884912431,642.8900146,1.003401995,642.8900146,2.307715654,642.8900146,4.539131165,642.8900146,9.280035019,642.8900146,17.67428207,642.8900146,33.58529663,642.8900146,23.13588905,642.8900146,12.6600771,642.8900146,27.03063202,
643.9099731,0.4123784304,643.9099731,0.9951577783,643.9099731,2.221701145,643.9099731,4.300082207,643.9099731,8.986495972,643.9099731,16.61605835,643.9099731,30.10174751,643.9099731,22.88578796,643.9099731,11.86777496,643.9099731,25.73058128,
644.9199829,0.3824181855,644.9199829,0.9144177437,644.9199829,2.083634377,644.9199829,4.303104401,644.9199829,8.290061951,644.9199829,15.69999218,644.9199829,28.16466713,644.9199829,21.46232605,644.9199829,11.57688236,644.9199829,25.6677494,
645.9400024,0.3438949883,645.9400024,0.8328824043,645.9400024,2.007607937,645.9400024,3.880664825,645.9400024,8.070649147,645.9400024,14.56941223,645.9400024,27.14856148,645.9400024,20.70845604,645.9400024,11.07484818,645.9400024,22.9585247,
646.9500122,0.3650923967,646.9500122,0.8823946714,646.9500122,1.841156721,646.9500122,4.000660896,646.9500122,7.83206892,646.9500122,14.02156448,646.9500122,25.99472046,646.9500122,19.58743477,646.9500122,10.36635113,646.9500122,22.1000042,
647.9699707,0.3324166834,647.9699707,0.7630652189,647.9699707,1.825262308,647.9699707,3.821140766,647.9699707,7.453327656,647.9699707,14.25063419,647.9699707,25.30994415,647.9699707,18.57713699,647.9699707,9.777983665,647.9699707,21.10411263,
648.8400269,0.3493348062,648.8400269,0.8068692684,648.8400269,1.836737156,648.8400269,3.373553276,648.8400269,7.463129997,648.8400269,14.05410004,648.8400269,23.11360168,648.8400269,18.79887199,648.8400269,9.605007172,648.8400269,20.83408928,
649.8499756,0.3195758164,649.8499756,0.7526550293,649.8499756,1.728781462,649.8499756,3.49510169,649.8499756,6.829226971,649.8499756,12.51017761,649.8499756,23.41021538,649.8499756,17.56725311,649.8499756,9.091236115,649.8499756,19.20778465,
650.8599854,0.3195341825,650.8599854,0.6480371356,650.8599854,1.622521043,650.8599854,3.291862249,650.8599854,6.47999382,650.8599854,12.61163044,650.8599854,22.6893177,650.8599854,15.91368008,650.8599854,8.945633888,650.8599854,19.1414299,

500V,
500V
Collection Time: 4/1/2025 12:39:13 PM
Operator Name  :
Scan Software Version: 1.2(147)
Parameter List :
Instrument                        Cary Eclipse
Instrument Serial Number          EL00063371
Data mode                         Fluorescence
Scan mode                         Emission
X Mode                            Wavelength (nm)
Start (nm)                        535.00
Stop (nm)                         650.00
Ex. Wavelength (nm)               526.00
Ex. Slit (nm)                     5
Em. Slit (nm)                     5
Scan rate (nm/min)                600.00
Data interval (nm)                1.0000
Averaging Time (s)                0.1000
Excitation filter                 Auto
Emission filter                   Open
PMT voltage (V)                   500
Corrected spectra                 OFF
Multicell holder                  Multicell
Multi zero                       OFF
Method Log     :
Method Name    : Default
Date/Time stamp: 4/1/2025 9:14:35 AM
Method Modifications:
Overlayed Graphs Changed: 4/1/2025 9:16:26 AM, Old:OFF, New:ON
PMT Volts Changed: 4/1/2025 9:16:26 AM, Old:600, New:480
Cell Changer Changed: 4/1/2025 9:16:26 AM, Old:OFF, New:ON
Cell2 Changed: 4/1/2025 9:16:26 AM, Old:OFF, New:ON
Monitoring device: Changed: 4/1/2025 9:16:26 AM, Old:PCB 150, New:Block
User Delta Stop Changed: 4/1/2025 9:16:26 AM, Old: 450.00, New: 526.00
User Delta Increment Changed: 4/1/2025 9:16:26 AM, Old:  10.00, New:   0.15
Emission PMT (V): Changed: 4/1/2025 9:16:26 AM, Old: 600, New: 480
Excitation Wavelength Changed: 4/1/2025 9:16:26 AM, Old: 350.00, New: 526.00
Emission Wavelength Changed: 4/1/2025 9:16:26 AM, Old: 400.00, New: 535.00
Stop Wavelength Changed: 4/1/2025 9:16:26 AM, Old: 600.00, New: 650.00
Scan mode: Changed: 4/1/2025 9:17:18 AM, Old:Emission, New:Excitation
User Delta Stop Changed: 4/1/2025 9:17:18 AM, Old: 526.00, New: 555.00
Excitation Wavelength Changed: 4/1/2025 9:17:18 AM, Old: 526.00, New: 400.00
Emission Wavelength Changed: 4/1/2025 9:17:18 AM, Old: 535.00, New: 555.00
Stop Wavelength Changed: 4/1/2025 9:17:18 AM, Old: 650.00, New: 550.00
PMT Volts Changed: 4/1/2025 9:20:58 AM, Old:480, New:490
Scan mode: Changed: 4/1/2025 9:20:58 AM, Old:Excitation, New:Emission
Emission PMT (V): Changed: 4/1/2025 9:20:58 AM, Old: 480, New: 490
Excitation Wavelength Changed: 4/1/2025 9:20:58 AM, Old: 400.00, New: 526.00
Emission Wavelength Changed: 4/1/2025 9:20:58 AM, Old: 555.00, New: 535.00
Stop Wavelength Changed: 4/1/2025 9:20:58 AM, Old: 550.00, New: 650.00
Scan mode: Changed: 4/1/2025 9:22:17 AM, Old:Emission, New:Excitation
Excitation Wavelength Changed: 4/1/2025 9:22:17 AM, Old: 526.00, New: 400.00
Emission Wavelength Changed: 4/1/2025 9:22:17 AM, Old: 535.00, New: 555.00
Stop Wavelength Changed: 4/1/2025 9:22:17 AM, Old: 650.00, New: 550.00
Zero Mode Changed: 4/1/2025 9:27:29 AM, Old:OFF, New:Reading
Zero Mode Changed: 4/1/2025 9:27:29 AM, Old:Reading, New:ON
Scan mode: Changed: 4/1/2025 9:29:46 AM, Old:Excitation, New:Emission
Excitation Wavelength Changed: 4/1/2025 9:29:46 AM, Old: 400.00, New: 500.00
Emission Wavelength Changed: 4/1/2025 9:29:46 AM, Old: 555.00, New: 505.00
Stop Wavelength Changed: 4/1/2025 9:29:46 AM, Old: 550.00, New: 650.00
Sample2 Changed: 4/1/2025 9:30:34 AM, Old:Sample2, New:ecc_500
Excitation Wavelength Changed: 4/1/2025 9:37:32 AM, Old: 500.00, New: 510.00
Emission Wavelength Changed: 4/1/2025 9:37:32 AM, Old: 505.00, New: 515.00
Sample2 Changed: 4/1/2025 9:37:59 AM, Old:ecc_500, New:ecc_510
Excitation Wavelength Changed: 4/1/2025 9:40:38 AM, Old: 510.00, New: 520.00
Emission Wavelength Changed: 4/1/2025 9:40:38 AM, Old: 515.00, New: 525.00
Sample2 Changed: 4/1/2025 9:41:05 AM, Old:ecc_510, New:ecc_520
Excitation Wavelength Changed: 4/1/2025 9:42:10 AM, Old: 520.00, New: 490.00
Emission Wavelength Changed: 4/1/2025 9:42:10 AM, Old: 525.00, New: 495.00
Sample2 Changed: 4/1/2025 9:42:28 AM, Old:ecc_520, New:ecc_490
Excitation Wavelength Changed: 4/1/2025 9:43:42 AM, Old: 490.00, New: 530.00
Emission Wavelength Changed: 4/1/2025 9:43:42 AM, Old: 495.00, New: 535.00
Sample2 Changed: 4/1/2025 9:44:02 AM, Old:ecc_490, New:ecc_530
Excitation Wavelength Changed: 4/1/2025 9:44:50 AM, Old: 530.00, New: 526.00
Emission Wavelength Changed: 4/1/2025 9:44:50 AM, Old: 535.00, New: 531.00
Sample2 Changed: 4/1/2025 9:45:08 AM, Old:ecc_530, New:ecc_526
Excitation Wavelength Changed: 4/1/2025 9:45:50 AM, Old: 526.00, New: 480.00
Emission Wavelength Changed: 4/1/2025 9:45:50 AM, Old: 531.00, New: 485.00
Sample2 Changed: 4/1/2025 9:46:10 AM, Old:ecc_526, New:ecc_480
Excitation Wavelength Changed: 4/1/2025 9:46:49 AM, Old: 480.00, New: 470.00
Emission Wavelength Changed: 4/1/2025 9:46:49 AM, Old: 485.00, New: 475.00
Sample2 Changed: 4/1/2025 9:47:12 AM, Old:ecc_480, New:ecc_470
Excitation Wavelength Changed: 4/1/2025 9:48:04 AM, Old: 470.00, New: 515.00
Emission Wavelength Changed: 4/1/2025 9:48:04 AM, Old: 475.00, New: 520.00
Sample2 Changed: 4/1/2025 9:48:22 AM, Old:ecc_470, New:ecc_515
Excitation Wavelength Changed: 4/1/2025 9:49:03 AM, Old: 515.00, New: 460.00
Emission Wavelength Changed: 4/1/2025 9:49:03 AM, Old: 520.00, New: 465.00
Sample2 Changed: 4/1/2025 9:49:23 AM, Old:ecc_515, New:ecc_460
Excitation Wavelength Changed: 4/1/2025 10:13:40 AM, Old: 460.00, New: 526.00
Emission Wavelength Changed: 4/1/2025 10:13:40 AM, Old: 465.00, New: 535.00
Sample2 Changed: 4/1/2025 10:15:24 AM, Old:ecc_460, New:ecc_526
PMT Volts Changed: 4/1/2025 10:16:50 AM, Old:490, New:495
Emission PMT (V): Changed: 4/1/2025 10:16:51 AM, Old: 490, New: 495
Zero Mode Changed: 4/1/2025 10:16:51 AM, Old:ON, New:OFF
Sample2 Changed: 4/1/2025 10:17:11 AM, Old:ecc_526, New:ecc_526_05
PMT Volts Changed: 4/1/2025 10:19:28 AM, Old:495, New:500
Emission PMT (V): Changed: 4/1/2025 10:19:28 AM, Old: 495, New: 500
PMT Volts Changed: 4/1/2025 10:20:20 AM, Old:500, New:503
Emission PMT (V): Changed: 4/1/2025 10:20:20 AM, Old: 500, New: 503
PMT Volts Changed: 4/1/2025 10:20:56 AM, Old:503, New:500
Emission PMT (V): Changed: 4/1/2025 10:20:56 AM, Old: 503, New: 500
Sample2 Changed: 4/1/2025 10:45:38 AM, Old:ecc_526_05, New:ecc_526_04
Sample2 Changed: 4/1/2025 10:49:30 AM, Old:ecc_526_04, New:ecc_526_04_2
Sample2 Changed: 4/1/2025 11:13:17 AM, Old:ecc_526_04_2, New:ecc_526_03
Sample2 Changed: 4/1/2025 11:24:04 AM, Old:ecc_526_03, New:ecc_526_02
Sample2 Changed: 4/1/2025 11:34:59 AM, Old:ecc_526_02, New:ecc_526_01
Sample2 Changed: 4/1/2025 11:43:15 AM, Old:ecc_526_01, New:ecc_526_008
Sample2 Changed: 4/1/2025 11:54:05 AM, Old:ecc_526_008, New:ecc_526_006
Sample2 Changed: 4/1/2025 12:12:56 PM, Old:ecc_526_006, New:ecc_526_004
Sample2 Changed: 4/1/2025 12:30:33 PM, Old:ecc_526_004, New:ecc_526_002
Sample2 Changed: 4/1/2025 12:37:06 PM, Old:ecc_526_002, New:ecc_526_001
Sample2 Changed: 4/1/2025 12:39:13 PM, Old:ecc_526_001, New:500V
End Method Modifications

550V,
550V
Collection Time: 4/1/2025 12:40:31 PM
Operator Name  :
Scan Software Version: 1.2(147)
Parameter List :
Instrument                        Cary Eclipse
Instrument Serial Number          EL00063371
Data mode                         Fluorescence
Scan mode                         Emission
X Mode                            Wavelength (nm)
Start (nm)                        535.00
Stop (nm)                         650.00
Ex. Wavelength (nm)               526.00
Ex. Slit (nm)                     5
Em. Slit (nm)                     5
Scan rate (nm/min)                600.00
Data interval (nm)                1.0000
Averaging Time (s)                0.1000
Excitation filter                 Auto
Emission filter                   Open
PMT voltage (V)                   550
Corrected spectra                 OFF
Multicell holder                  Multicell
Multi zero                       OFF
Method Log     :
Method Name    : Default
Date/Time stamp: 4/1/2025 9:14:35 AM
Method Modifications:
Overlayed Graphs Changed: 4/1/2025 9:16:26 AM, Old:OFF, New:ON
PMT Volts Changed: 4/1/2025 9:16:26 AM, Old:600, New:480
Cell Changer Changed: 4/1/2025 9:16:26 AM, Old:OFF, New:ON
Cell2 Changed: 4/1/2025 9:16:26 AM, Old:OFF, New:ON
Monitoring device: Changed: 4/1/2025 9:16:26 AM, Old:PCB 150, New:Block
User Delta Stop Changed: 4/1/2025 9:16:26 AM, Old: 450.00, New: 526.00
User Delta Increment Changed: 4/1/2025 9:16:26 AM, Old:  10.00, New:   0.15
Emission PMT (V): Changed: 4/1/2025 9:16:26 AM, Old: 600, New: 480
Excitation Wavelength Changed: 4/1/2025 9:16:26 AM, Old: 350.00, New: 526.00
Emission Wavelength Changed: 4/1/2025 9:16:26 AM, Old: 400.00, New: 535.00
Stop Wavelength Changed: 4/1/2025 9:16:26 AM, Old: 600.00, New: 650.00
Scan mode: Changed: 4/1/2025 9:17:18 AM, Old:Emission, New:Excitation
User Delta Stop Changed: 4/1/2025 9:17:18 AM, Old: 526.00, New: 555.00
Excitation Wavelength Changed: 4/1/2025 9:17:18 AM, Old: 526.00, New: 400.00
Emission Wavelength Changed: 4/1/2025 9:17:18 AM, Old: 535.00, New: 555.00
Stop Wavelength Changed: 4/1/2025 9:17:18 AM, Old: 650.00, New: 550.00
PMT Volts Changed: 4/1/2025 9:20:58 AM, Old:480, New:490
Scan mode: Changed: 4/1/2025 9:20:58 AM, Old:Excitation, New:Emission
Emission PMT (V): Changed: 4/1/2025 9:20:58 AM, Old: 480, New: 490
Excitation Wavelength Changed: 4/1/2025 9:20:58 AM, Old: 400.00, New: 526.00
Emission Wavelength Changed: 4/1/2025 9:20:58 AM, Old: 555.00, New: 535.00
Stop Wavelength Changed: 4/1/2025 9:20:58 AM, Old: 550.00, New: 650.00
Scan mode: Changed: 4/1/2025 9:22:17 AM, Old:Emission, New:Excitation
Excitation Wavelength Changed: 4/1/2025 9:22:17 AM, Old: 526.00, New: 400.00
Emission Wavelength Changed: 4/1/2025 9:22:17 AM, Old: 535.00, New: 555.00
Stop Wavelength Changed: 4/1/2025 9:22:17 AM, Old: 650.00, New: 550.00
Zero Mode Changed: 4/1/2025 9:27:29 AM, Old:OFF, New:Reading
Zero Mode Changed: 4/1/2025 9:27:29 AM, Old:Reading, New:ON
Scan mode: Changed: 4/1/2025 9:29:46 AM, Old:Excitation, New:Emission
Excitation Wavelength Changed: 4/1/2025 9:29:46 AM, Old: 400.00, New: 500.00
Emission Wavelength Changed: 4/1/2025 9:29:46 AM, Old: 555.00, New: 505.00
Stop Wavelength Changed: 4/1/2025 9:29:46 AM, Old: 550.00, New: 650.00
Sample2 Changed: 4/1/2025 9:30:34 AM, Old:Sample2, New:ecc_500
Excitation Wavelength Changed: 4/1/2025 9:37:32 AM, Old: 500.00, New: 510.00
Emission Wavelength Changed: 4/1/2025 9:37:32 AM, Old: 505.00, New: 515.00
Sample2 Changed: 4/1/2025 9:37:59 AM, Old:ecc_500, New:ecc_510
Excitation Wavelength Changed: 4/1/2025 9:40:38 AM, Old: 510.00, New: 520.00
Emission Wavelength Changed: 4/1/2025 9:40:38 AM, Old: 515.00, New: 525.00
Sample2 Changed: 4/1/2025 9:41:05 AM, Old:ecc_510, New:ecc_520
Excitation Wavelength Changed: 4/1/2025 9:42:10 AM, Old: 520.00, New: 490.00
Emission Wavelength Changed: 4/1/2025 9:42:10 AM, Old: 525.00, New: 495.00
Sample2 Changed: 4/1/2025 9:42:28 AM, Old:ecc_520, New:ecc_490
Excitation Wavelength Changed: 4/1/2025 9:43:42 AM, Old: 490.00, New: 530.00
Emission Wavelength Changed: 4/1/2025 9:43:42 AM, Old: 495.00, New: 535.00
Sample2 Changed: 4/1/2025 9:44:02 AM, Old:ecc_490, New:ecc_530
Excitation Wavelength Changed: 4/1/2025 9:44:50 AM, Old: 530.00, New: 526.00
Emission Wavelength Changed: 4/1/2025 9:44:50 AM, Old: 535.00, New: 531.00
Sample2 Changed: 4/1/2025 9:45:08 AM, Old:ecc_530, New:ecc_526
Excitation Wavelength Changed: 4/1/2025 9:45:50 AM, Old: 526.00, New: 480.00
Emission Wavelength Changed: 4/1/2025 9:45:50 AM, Old: 531.00, New: 485.00
Sample2 Changed: 4/1/2025 9:46:10 AM, Old:ecc_526, New:ecc_480
Excitation Wavelength Changed: 4/1/2025 9:46:49 AM, Old: 480.00, New: 470.00
Emission Wavelength Changed: 4/1/2025 9:46:49 AM, Old: 485.00, New: 475.00
Sample2 Changed: 4/1/2025 9:47:12 AM, Old:ecc_480, New:ecc_470
Excitation Wavelength Changed: 4/1/2025 9:48:04 AM, Old: 470.00, New: 515.00
Emission Wavelength Changed: 4/1/2025 9:48:04 AM, Old: 475.00, New: 520.00
Sample2 Changed: 4/1/2025 9:48:22 AM, Old:ecc_470, New:ecc_515
Excitation Wavelength Changed: 4/1/2025 9:49:03 AM, Old: 515.00, New: 460.00
Emission Wavelength Changed: 4/1/2025 9:49:03 AM, Old: 520.00, New: 465.00
Sample2 Changed: 4/1/2025 9:49:23 AM, Old:ecc_515, New:ecc_460
Excitation Wavelength Changed: 4/1/2025 10:13:40 AM, Old: 460.00, New: 526.00
Emission Wavelength Changed: 4/1/2025 10:13:40 AM, Old: 465.00, New: 535.00
Sample2 Changed: 4/1/2025 10:15:24 AM, Old:ecc_460, New:ecc_526
PMT Volts Changed: 4/1/2025 10:16:50 AM, Old:490, New:495
Emission PMT (V): Changed: 4/1/2025 10:16:51 AM, Old: 490, New: 495
Zero Mode Changed: 4/1/2025 10:16:51 AM, Old:ON, New:OFF
Sample2 Changed: 4/1/2025 10:17:11 AM, Old:ecc_526, New:ecc_526_05
PMT Volts Changed: 4/1/2025 10:19:28 AM, Old:495, New:500
Emission PMT (V): Changed: 4/1/2025 10:19:28 AM, Old: 495, New: 500
PMT Volts Changed: 4/1/2025 10:20:20 AM, Old:500, New:503
Emission PMT (V): Changed: 4/1/2025 10:20:20 AM, Old: 500, New: 503
PMT Volts Changed: 4/1/2025 10:20:56 AM, Old:503, New:500
Emission PMT (V): Changed: 4/1/2025 10:20:56 AM, Old: 503, New: 500
Sample2 Changed: 4/1/2025 10:45:38 AM, Old:ecc_526_05, New:ecc_526_04
Sample2 Changed: 4/1/2025 10:49:30 AM, Old:ecc_526_04, New:ecc_526_04_2
Sample2 Changed: 4/1/2025 11:13:17 AM, Old:ecc_526_04_2, New:ecc_526_03
Sample2 Changed: 4/1/2025 11:24:04 AM, Old:ecc_526_03, New:ecc_526_02
Sample2 Changed: 4/1/2025 11:34:59 AM, Old:ecc_526_02, New:ecc_526_01
Sample2 Changed: 4/1/2025 11:43:15 AM, Old:ecc_526_01, New:ecc_526_008
Sample2 Changed: 4/1/2025 11:54:05 AM, Old:ecc_526_008, New:ecc_526_006
Sample2 Changed: 4/1/2025 12:12:56 PM, Old:ecc_526_006, New:ecc_526_004
Sample2 Changed: 4/1/2025 12:30:33 PM, Old:ecc_526_004, New:ecc_526_002
Sample2 Changed: 4/1/2025 12:37:06 PM, Old:ecc_526_002, New:ecc_526_001
Sample2 Changed: 4/1/2025 12:39:13 PM, Old:ecc_526_001, New:500V
PMT Volts Changed: 4/1/2025 12:40:10 PM, Old:500, New:550
Emission PMT (V): Changed: 4/1/2025 12:40:10 PM, Old: 500, New: 550
Sample2 Changed: 4/1/2025 12:40:31 PM, Old:500V, New:550V
End Method Modifications

600V,
600V
Collection Time: 4/1/2025 12:41:23 PM
Operator Name  :
Scan Software Version: 1.2(147)
Parameter List :
Instrument                        Cary Eclipse
Instrument Serial Number          EL00063371
Data mode                         Fluorescence
Scan mode                         Emission
X Mode                            Wavelength (nm)
Start (nm)                        535.00
Stop (nm)                         650.00
Ex. Wavelength (nm)               526.00
Ex. Slit (nm)                     5
Em. Slit (nm)                     5
Scan rate (nm/min)                600.00
Data interval (nm)                1.0000
Averaging Time (s)                0.1000
Excitation filter                 Auto
Emission filter                   Open
PMT voltage (V)                   600
Corrected spectra                 OFF
Multicell holder                  Multicell
Multi zero                       OFF
Method Log     :
Method Name    : Default
Date/Time stamp: 4/1/2025 9:14:35 AM
Method Modifications:
Overlayed Graphs Changed: 4/1/2025 9:16:26 AM, Old:OFF, New:ON
PMT Volts Changed: 4/1/2025 9:16:26 AM, Old:600, New:480
Cell Changer Changed: 4/1/2025 9:16:26 AM, Old:OFF, New:ON
Cell2 Changed: 4/1/2025 9:16:26 AM, Old:OFF, New:ON
Monitoring device: Changed: 4/1/2025 9:16:26 AM, Old:PCB 150, New:Block
User Delta Stop Changed: 4/1/2025 9:16:26 AM, Old: 450.00, New: 526.00
User Delta Increment Changed: 4/1/2025 9:16:26 AM, Old:  10.00, New:   0.15
Emission PMT (V): Changed: 4/1/2025 9:16:26 AM, Old: 600, New: 480
Excitation Wavelength Changed: 4/1/2025 9:16:26 AM, Old: 350.00, New: 526.00
Emission Wavelength Changed: 4/1/2025 9:16:26 AM, Old: 400.00, New: 535.00
Stop Wavelength Changed: 4/1/2025 9:16:26 AM, Old: 600.00, New: 650.00
Scan mode: Changed: 4/1/2025 9:17:18 AM, Old:Emission, New:Excitation
User Delta Stop Changed: 4/1/2025 9:17:18 AM, Old: 526.00, New: 555.00
Excitation Wavelength Changed: 4/1/2025 9:17:18 AM, Old: 526.00, New: 400.00
Emission Wavelength Changed: 4/1/2025 9:17:18 AM, Old: 535.00, New: 555.00
Stop Wavelength Changed: 4/1/2025 9:17:18 AM, Old: 650.00, New: 550.00
PMT Volts Changed: 4/1/2025 9:20:58 AM, Old:480, New:490
Scan mode: Changed: 4/1/2025 9:20:58 AM, Old:Excitation, New:Emission
Emission PMT (V): Changed: 4/1/2025 9:20:58 AM, Old: 480, New: 490
Excitation Wavelength Changed: 4/1/2025 9:20:58 AM, Old: 400.00, New: 526.00
Emission Wavelength Changed: 4/1/2025 9:20:58 AM, Old: 555.00, New: 535.00
Stop Wavelength Changed: 4/1/2025 9:20:58 AM, Old: 550.00, New: 650.00
Scan mode: Changed: 4/1/2025 9:22:17 AM, Old:Emission, New:Excitation
Excitation Wavelength Changed: 4/1/2025 9:22:17 AM, Old: 526.00, New: 400.00
Emission Wavelength Changed: 4/1/2025 9:22:17 AM, Old: 535.00, New: 555.00
Stop Wavelength Changed: 4/1/2025 9:22:17 AM, Old: 650.00, New: 550.00
Zero Mode Changed: 4/1/2025 9:27:29 AM, Old:OFF, New:Reading
Zero Mode Changed: 4/1/2025 9:27:29 AM, Old:Reading, New:ON
Scan mode: Changed: 4/1/2025 9:29:46 AM, Old:Excitation, New:Emission
Excitation Wavelength Changed: 4/1/2025 9:29:46 AM, Old: 400.00, New: 500.00
Emission Wavelength Changed: 4/1/2025 9:29:46 AM, Old: 555.00, New: 505.00
Stop Wavelength Changed: 4/1/2025 9:29:46 AM, Old: 550.00, New: 650.00
Sample2 Changed: 4/1/2025 9:30:34 AM, Old:Sample2, New:ecc_500
Excitation Wavelength Changed: 4/1/2025 9:37:32 AM, Old: 500.00, New: 510.00
Emission Wavelength Changed: 4/1/2025 9:37:32 AM, Old: 505.00, New: 515.00
Sample2 Changed: 4/1/2025 9:37:59 AM, Old:ecc_500, New:ecc_510
Excitation Wavelength Changed: 4/1/2025 9:40:38 AM, Old: 510.00, New: 520.00
Emission Wavelength Changed: 4/1/2025 9:40:38 AM, Old: 515.00, New: 525.00
Sample2 Changed: 4/1/2025 9:41:05 AM, Old:ecc_510, New:ecc_520
Excitation Wavelength Changed: 4/1/2025 9:42:10 AM, Old: 520.00, New: 490.00
Emission Wavelength Changed: 4/1/2025 9:42:10 AM, Old: 525.00, New: 495.00
Sample2 Changed: 4/1/2025 9:42:28 AM, Old:ecc_520, New:ecc_490
Excitation Wavelength Changed: 4/1/2025 9:43:42 AM, Old: 490.00, New: 530.00
Emission Wavelength Changed: 4/1/2025 9:43:42 AM, Old: 495.00, New: 535.00
Sample2 Changed: 4/1/2025 9:44:02 AM, Old:ecc_490, New:ecc_530
Excitation Wavelength Changed: 4/1/2025 9:44:50 AM, Old: 530.00, New: 526.00
Emission Wavelength Changed: 4/1/2025 9:44:50 AM, Old: 535.00, New: 531.00
Sample2 Changed: 4/1/2025 9:45:08 AM, Old:ecc_530, New:ecc_526
Excitation Wavelength Changed: 4/1/2025 9:45:50 AM, Old: 526.00, New: 480.00
Emission Wavelength Changed: 4/1/2025 9:45:50 AM, Old: 531.00, New: 485.00
Sample2 Changed: 4/1/2025 9:46:10 AM, Old:ecc_526, New:ecc_480
Excitation Wavelength Changed: 4/1/2025 9:46:49 AM, Old: 480.00, New: 470.00
Emission Wavelength Changed: 4/1/2025 9:46:49 AM, Old: 485.00, New: 475.00
Sample2 Changed: 4/1/2025 9:47:12 AM, Old:ecc_480, New:ecc_470
Excitation Wavelength Changed: 4/1/2025 9:48:04 AM, Old: 470.00, New: 515.00
Emission Wavelength Changed: 4/1/2025 9:48:04 AM, Old: 475.00, New: 520.00
Sample2 Changed: 4/1/2025 9:48:22 AM, Old:ecc_470, New:ecc_515
Excitation Wavelength Changed: 4/1/2025 9:49:03 AM, Old: 515.00, New: 460.00
Emission Wavelength Changed: 4/1/2025 9:49:03 AM, Old: 520.00, New: 465.00
Sample2 Changed: 4/1/2025 9:49:23 AM, Old:ecc_515, New:ecc_460
Excitation Wavelength Changed: 4/1/2025 10:13:40 AM, Old: 460.00, New: 526.00
Emission Wavelength Changed: 4/1/2025 10:13:40 AM, Old: 465.00, New: 535.00
Sample2 Changed: 4/1/2025 10:15:24 AM, Old:ecc_460, New:ecc_526
PMT Volts Changed: 4/1/2025 10:16:50 AM, Old:490, New:495
Emission PMT (V): Changed: 4/1/2025 10:16:51 AM, Old: 490, New: 495
Zero Mode Changed: 4/1/2025 10:16:51 AM, Old:ON, New:OFF
Sample2 Changed: 4/1/2025 10:17:11 AM, Old:ecc_526, New:ecc_526_05
PMT Volts Changed: 4/1/2025 10:19:28 AM, Old:495, New:500
Emission PMT (V): Changed: 4/1/2025 10:19:28 AM, Old: 495, New: 500
PMT Volts Changed: 4/1/2025 10:20:20 AM, Old:500, New:503
Emission PMT (V): Changed: 4/1/2025 10:20:20 AM, Old: 500, New: 503
PMT Volts Changed: 4/1/2025 10:20:56 AM, Old:503, New:500
Emission PMT (V): Changed: 4/1/2025 10:20:56 AM, Old: 503, New: 500
Sample2 Changed: 4/1/2025 10:45:38 AM, Old:ecc_526_05, New:ecc_526_04
Sample2 Changed: 4/1/2025 10:49:30 AM, Old:ecc_526_04, New:ecc_526_04_2
Sample2 Changed: 4/1/2025 11:13:17 AM, Old:ecc_526_04_2, New:ecc_526_03
Sample2 Changed: 4/1/2025 11:24:04 AM, Old:ecc_526_03, New:ecc_526_02
Sample2 Changed: 4/1/2025 11:34:59 AM, Old:ecc_526_02, New:ecc_526_01
Sample2 Changed: 4/1/2025 11:43:15 AM, Old:ecc_526_01, New:ecc_526_008
Sample2 Changed: 4/1/2025 11:54:05 AM, Old:ecc_526_008, New:ecc_526_006
Sample2 Changed: 4/1/2025 12:12:56 PM, Old:ecc_526_006, New:ecc_526_004
Sample2 Changed: 4/1/2025 12:30:33 PM, Old:ecc_526_004, New:ecc_526_002
Sample2 Changed: 4/1/2025 12:37:06 PM, Old:ecc_526_002, New:ecc_526_001
Sample2 Changed: 4/1/2025 12:39:13 PM, Old:ecc_526_001, New:500V
PMT Volts Changed: 4/1/2025 12:40:10 PM, Old:500, New:550
Emission PMT (V): Changed: 4/1/2025 12:40:10 PM, Old: 500, New: 550
Sample2 Changed: 4/1/2025 12:40:31 PM, Old:500V, New:550V
PMT Volts Changed: 4/1/2025 12:41:04 PM, Old:550, New:600
Emission PMT (V): Changed: 4/1/2025 12:41:04 PM, Old: 550, New: 600
Sample2 Changed: 4/1/2025 12:41:23 PM, Old:550V, New:600V
End Method Modifications

650V,
650V
Collection Time: 4/1/2025 12:42:13 PM
Operator Name  :
Scan Software Version: 1.2(147)
Parameter List :
Instrument                        Cary Eclipse
Instrument Serial Number          EL00063371
Data mode                         Fluorescence
Scan mode                         Emission
X Mode                            Wavelength (nm)
Start (nm)                        535.00
Stop (nm)                         650.00
Ex. Wavelength (nm)               526.00
Ex. Slit (nm)                     5
Em. Slit (nm)                     5
Scan rate (nm/min)                600.00
Data interval (nm)                1.0000
Averaging Time (s)                0.1000
Excitation filter                 Auto
Emission filter                   Open
PMT voltage (V)                   650
Corrected spectra                 OFF
Multicell holder                  Multicell
Multi zero                       OFF
Method Log     :
Method Name    : Default
Date/Time stamp: 4/1/2025 9:14:35 AM
Method Modifications:
Overlayed Graphs Changed: 4/1/2025 9:16:26 AM, Old:OFF, New:ON
PMT Volts Changed: 4/1/2025 9:16:26 AM, Old:600, New:480
Cell Changer Changed: 4/1/2025 9:16:26 AM, Old:OFF, New:ON
Cell2 Changed: 4/1/2025 9:16:26 AM, Old:OFF, New:ON
Monitoring device: Changed: 4/1/2025 9:16:26 AM, Old:PCB 150, New:Block
User Delta Stop Changed: 4/1/2025 9:16:26 AM, Old: 450.00, New: 526.00
User Delta Increment Changed: 4/1/2025 9:16:26 AM, Old:  10.00, New:   0.15
Emission PMT (V): Changed: 4/1/2025 9:16:26 AM, Old: 600, New: 480
Excitation Wavelength Changed: 4/1/2025 9:16:26 AM, Old: 350.00, New: 526.00
Emission Wavelength Changed: 4/1/2025 9:16:26 AM, Old: 400.00, New: 535.00
Stop Wavelength Changed: 4/1/2025 9:16:26 AM, Old: 600.00, New: 650.00
Scan mode: Changed: 4/1/2025 9:17:18 AM, Old:Emission, New:Excitation
User Delta Stop Changed: 4/1/2025 9:17:18 AM, Old: 526.00, New: 555.00
Excitation Wavelength Changed: 4/1/2025 9:17:18 AM, Old: 526.00, New: 400.00
Emission Wavelength Changed: 4/1/2025 9:17:18 AM, Old: 535.00, New: 555.00
Stop Wavelength Changed: 4/1/2025 9:17:18 AM, Old: 650.00, New: 550.00
PMT Volts Changed: 4/1/2025 9:20:58 AM, Old:480, New:490
Scan mode: Changed: 4/1/2025 9:20:58 AM, Old:Excitation, New:Emission
Emission PMT (V): Changed: 4/1/2025 9:20:58 AM, Old: 480, New: 490
Excitation Wavelength Changed: 4/1/2025 9:20:58 AM, Old: 400.00, New: 526.00
Emission Wavelength Changed: 4/1/2025 9:20:58 AM, Old: 555.00, New: 535.00
Stop Wavelength Changed: 4/1/2025 9:20:58 AM, Old: 550.00, New: 650.00
Scan mode: Changed: 4/1/2025 9:22:17 AM, Old:Emission, New:Excitation
Excitation Wavelength Changed: 4/1/2025 9:22:17 AM, Old: 526.00, New: 400.00
Emission Wavelength Changed: 4/1/2025 9:22:17 AM, Old: 535.00, New: 555.00
Stop Wavelength Changed: 4/1/2025 9:22:17 AM, Old: 650.00, New: 550.00
Zero Mode Changed: 4/1/2025 9:27:29 AM, Old:OFF, New:Reading
Zero Mode Changed: 4/1/2025 9:27:29 AM, Old:Reading, New:ON
Scan mode: Changed: 4/1/2025 9:29:46 AM, Old:Excitation, New:Emission
Excitation Wavelength Changed: 4/1/2025 9:29:46 AM, Old: 400.00, New: 500.00
Emission Wavelength Changed: 4/1/2025 9:29:46 AM, Old: 555.00, New: 505.00
Stop Wavelength Changed: 4/1/2025 9:29:46 AM, Old: 550.00, New: 650.00
Sample2 Changed: 4/1/2025 9:30:34 AM, Old:Sample2, New:ecc_500
Excitation Wavelength Changed: 4/1/2025 9:37:32 AM, Old: 500.00, New: 510.00
Emission Wavelength Changed: 4/1/2025 9:37:32 AM, Old: 505.00, New: 515.00
Sample2 Changed: 4/1/2025 9:37:59 AM, Old:ecc_500, New:ecc_510
Excitation Wavelength Changed: 4/1/2025 9:40:38 AM, Old: 510.00, New: 520.00
Emission Wavelength Changed: 4/1/2025 9:40:38 AM, Old: 515.00, New: 525.00
Sample2 Changed: 4/1/2025 9:41:05 AM, Old:ecc_510, New:ecc_520
Excitation Wavelength Changed: 4/1/2025 9:42:10 AM, Old: 520.00, New: 490.00
Emission Wavelength Changed: 4/1/2025 9:42:10 AM, Old: 525.00, New: 495.00
Sample2 Changed: 4/1/2025 9:42:28 AM, Old:ecc_520, New:ecc_490
Excitation Wavelength Changed: 4/1/2025 9:43:42 AM, Old: 490.00, New: 530.00
Emission Wavelength Changed: 4/1/2025 9:43:42 AM, Old: 495.00, New: 535.00
Sample2 Changed: 4/1/2025 9:44:02 AM, Old:ecc_490, New:ecc_530
Excitation Wavelength Changed: 4/1/2025 9:44:50 AM, Old: 530.00, New: 526.00
Emission Wavelength Changed: 4/1/2025 9:44:50 AM, Old: 535.00, New: 531.00
Sample2 Changed: 4/1/2025 9:45:08 AM, Old:ecc_530, New:ecc_526
Excitation Wavelength Changed: 4/1/2025 9:45:50 AM, Old: 526.00, New: 480.00
Emission Wavelength Changed: 4/1/2025 9:45:50 AM, Old: 531.00, New: 485.00
Sample2 Changed: 4/1/2025 9:46:10 AM, Old:ecc_526, New:ecc_480
Excitation Wavelength Changed: 4/1/2025 9:46:49 AM, Old: 480.00, New: 470.00
Emission Wavelength Changed: 4/1/2025 9:46:49 AM, Old: 485.00, New: 475.00
Sample2 Changed: 4/1/2025 9:47:12 AM, Old:ecc_480, New:ecc_470
Excitation Wavelength Changed: 4/1/2025 9:48:04 AM, Old: 470.00, New: 515.00
Emission Wavelength Changed: 4/1/2025 9:48:04 AM, Old: 475.00, New: 520.00
Sample2 Changed: 4/1/2025 9:48:22 AM, Old:ecc_470, New:ecc_515
Excitation Wavelength Changed: 4/1/2025 9:49:03 AM, Old: 515.00, New: 460.00
Emission Wavelength Changed: 4/1/2025 9:49:03 AM, Old: 520.00, New: 465.00
Sample2 Changed: 4/1/2025 9:49:23 AM, Old:ecc_515, New:ecc_460
Excitation Wavelength Changed: 4/1/2025 10:13:40 AM, Old: 460.00, New: 526.00
Emission Wavelength Changed: 4/1/2025 10:13:40 AM, Old: 465.00, New: 535.00
Sample2 Changed: 4/1/2025 10:15:24 AM, Old:ecc_460, New:ecc_526
PMT Volts Changed: 4/1/2025 10:16:50 AM, Old:490, New:495
Emission PMT (V): Changed: 4/1/2025 10:16:51 AM, Old: 490, New: 495
Zero Mode Changed: 4/1/2025 10:16:51 AM, Old:ON, New:OFF
Sample2 Changed: 4/1/2025 10:17:11 AM, Old:ecc_526, New:ecc_526_05
PMT Volts Changed: 4/1/2025 10:19:28 AM, Old:495, New:500
Emission PMT (V): Changed: 4/1/2025 10:19:28 AM, Old: 495, New: 500
PMT Volts Changed: 4/1/2025 10:20:20 AM, Old:500, New:503
Emission PMT (V): Changed: 4/1/2025 10:20:20 AM, Old: 500, New: 503
PMT Volts Changed: 4/1/2025 10:20:56 AM, Old:503, New:500
Emission PMT (V): Changed: 4/1/2025 10:20:56 AM, Old: 503, New: 500
Sample2 Changed: 4/1/2025 10:45:38 AM, Old:ecc_526_05, New:ecc_526_04
Sample2 Changed: 4/1/2025 10:49:30 AM, Old:ecc_526_04, New:ecc_526_04_2
Sample2 Changed: 4/1/2025 11:13:17 AM, Old:ecc_526_04_2, New:ecc_526_03
Sample2 Changed: 4/1/2025 11:24:04 AM, Old:ecc_526_03, New:ecc_526_02
Sample2 Changed: 4/1/2025 11:34:59 AM, Old:ecc_526_02, New:ecc_526_01
Sample2 Changed: 4/1/2025 11:43:15 AM, Old:ecc_526_01, New:ecc_526_008
Sample2 Changed: 4/1/2025 11:54:05 AM, Old:ecc_526_008, New:ecc_526_006
Sample2 Changed: 4/1/2025 12:12:56 PM, Old:ecc_526_006, New:ecc_526_004
Sample2 Changed: 4/1/2025 12:30:33 PM, Old:ecc_526_004, New:ecc_526_002
Sample2 Changed: 4/1/2025 12:37:06 PM, Old:ecc_526_002, New:ecc_526_001
Sample2 Changed: 4/1/2025 12:39:13 PM, Old:ecc_526_001, New:500V
PMT Volts Changed: 4/1/2025 12:40:10 PM, Old:500, New:550
Emission PMT (V): Changed: 4/1/2025 12:40:10 PM, Old: 500, New: 550
Sample2 Changed: 4/1/2025 12:40:31 PM, Old:500V, New:550V
PMT Volts Changed: 4/1/2025 12:41:04 PM, Old:550, New:600
Emission PMT (V): Changed: 4/1/2025 12:41:04 PM, Old: 550, New: 600
Sample2 Changed: 4/1/2025 12:41:23 PM, Old:550V, New:600V
PMT Volts Changed: 4/1/2025 12:41:56 PM, Old:600, New:650
Emission PMT (V): Changed: 4/1/2025 12:41:56 PM, Old: 600, New: 650
Sample2 Changed: 4/1/2025 12:42:13 PM, Old:600V, New:650V
End Method Modifications

700V,
700V
Collection Time: 4/1/2025 12:43:02 PM
Operator Name  :
Scan Software Version: 1.2(147)
Parameter List :
Instrument                        Cary Eclipse
Instrument Serial Number          EL00063371
Data mode                         Fluorescence
Scan mode                         Emission
X Mode                            Wavelength (nm)
Start (nm)                        535.00
Stop (nm)                         650.00
Ex. Wavelength (nm)               526.00
Ex. Slit (nm)                     5
Em. Slit (nm)                     5
Scan rate (nm/min)                600.00
Data interval (nm)                1.0000
Averaging Time (s)                0.1000
Excitation filter                 Auto
Emission filter                   Open
PMT voltage (V)                   700
Corrected spectra                 OFF
Multicell holder                  Multicell
Multi zero                       OFF
Method Log     :
Method Name    : Default
Date/Time stamp: 4/1/2025 9:14:35 AM
Method Modifications:
Overlayed Graphs Changed: 4/1/2025 9:16:26 AM, Old:OFF, New:ON
PMT Volts Changed: 4/1/2025 9:16:26 AM, Old:600, New:480
Cell Changer Changed: 4/1/2025 9:16:26 AM, Old:OFF, New:ON
Cell2 Changed: 4/1/2025 9:16:26 AM, Old:OFF, New:ON
Monitoring device: Changed: 4/1/2025 9:16:26 AM, Old:PCB 150, New:Block
User Delta Stop Changed: 4/1/2025 9:16:26 AM, Old: 450.00, New: 526.00
User Delta Increment Changed: 4/1/2025 9:16:26 AM, Old:  10.00, New:   0.15
Emission PMT (V): Changed: 4/1/2025 9:16:26 AM, Old: 600, New: 480
Excitation Wavelength Changed: 4/1/2025 9:16:26 AM, Old: 350.00, New: 526.00
Emission Wavelength Changed: 4/1/2025 9:16:26 AM, Old: 400.00, New: 535.00
Stop Wavelength Changed: 4/1/2025 9:16:26 AM, Old: 600.00, New: 650.00
Scan mode: Changed: 4/1/2025 9:17:18 AM, Old:Emission, New:Excitation
User Delta Stop Changed: 4/1/2025 9:17:18 AM, Old: 526.00, New: 555.00
Excitation Wavelength Changed: 4/1/2025 9:17:18 AM, Old: 526.00, New: 400.00
Emission Wavelength Changed: 4/1/2025 9:17:18 AM, Old: 535.00, New: 555.00
Stop Wavelength Changed: 4/1/2025 9:17:18 AM, Old: 650.00, New: 550.00
PMT Volts Changed: 4/1/2025 9:20:58 AM, Old:480, New:490
Scan mode: Changed: 4/1/2025 9:20:58 AM, Old:Excitation, New:Emission
Emission PMT (V): Changed: 4/1/2025 9:20:58 AM, Old: 480, New: 490
Excitation Wavelength Changed: 4/1/2025 9:20:58 AM, Old: 400.00, New: 526.00
Emission Wavelength Changed: 4/1/2025 9:20:58 AM, Old: 555.00, New: 535.00
Stop Wavelength Changed: 4/1/2025 9:20:58 AM, Old: 550.00, New: 650.00
Scan mode: Changed: 4/1/2025 9:22:17 AM, Old:Emission, New:Excitation
Excitation Wavelength Changed: 4/1/2025 9:22:17 AM, Old: 526.00, New: 400.00
Emission Wavelength Changed: 4/1/2025 9:22:17 AM, Old: 535.00, New: 555.00
Stop Wavelength Changed: 4/1/2025 9:22:17 AM, Old: 650.00, New: 550.00
Zero Mode Changed: 4/1/2025 9:27:29 AM, Old:OFF, New:Reading
Zero Mode Changed: 4/1/2025 9:27:29 AM, Old:Reading, New:ON
Scan mode: Changed: 4/1/2025 9:29:46 AM, Old:Excitation, New:Emission
Excitation Wavelength Changed: 4/1/2025 9:29:46 AM, Old: 400.00, New: 500.00
Emission Wavelength Changed: 4/1/2025 9:29:46 AM, Old: 555.00, New: 505.00
Stop Wavelength Changed: 4/1/2025 9:29:46 AM, Old: 550.00, New: 650.00
Sample2 Changed: 4/1/2025 9:30:34 AM, Old:Sample2, New:ecc_500
Excitation Wavelength Changed: 4/1/2025 9:37:32 AM, Old: 500.00, New: 510.00
Emission Wavelength Changed: 4/1/2025 9:37:32 AM, Old: 505.00, New: 515.00
Sample2 Changed: 4/1/2025 9:37:59 AM, Old:ecc_500, New:ecc_510
Excitation Wavelength Changed: 4/1/2025 9:40:38 AM, Old: 510.00, New: 520.00
Emission Wavelength Changed: 4/1/2025 9:40:38 AM, Old: 515.00, New: 525.00
Sample2 Changed: 4/1/2025 9:41:05 AM, Old:ecc_510, New:ecc_520
Excitation Wavelength Changed: 4/1/2025 9:42:10 AM, Old: 520.00, New: 490.00
Emission Wavelength Changed: 4/1/2025 9:42:10 AM, Old: 525.00, New: 495.00
Sample2 Changed: 4/1/2025 9:42:28 AM, Old:ecc_520, New:ecc_490
Excitation Wavelength Changed: 4/1/2025 9:43:42 AM, Old: 490.00, New: 530.00
Emission Wavelength Changed: 4/1/2025 9:43:42 AM, Old: 495.00, New: 535.00
Sample2 Changed: 4/1/2025 9:44:02 AM, Old:ecc_490, New:ecc_530
Excitation Wavelength Changed: 4/1/2025 9:44:50 AM, Old: 530.00, New: 526.00
Emission Wavelength Changed: 4/1/2025 9:44:50 AM, Old: 535.00, New: 531.00
Sample2 Changed: 4/1/2025 9:45:08 AM, Old:ecc_530, New:ecc_526
Excitation Wavelength Changed: 4/1/2025 9:45:50 AM, Old: 526.00, New: 480.00
Emission Wavelength Changed: 4/1/2025 9:45:50 AM, Old: 531.00, New: 485.00
Sample2 Changed: 4/1/2025 9:46:10 AM, Old:ecc_526, New:ecc_480
Excitation Wavelength Changed: 4/1/2025 9:46:49 AM, Old: 480.00, New: 470.00
Emission Wavelength Changed: 4/1/2025 9:46:49 AM, Old: 485.00, New: 475.00
Sample2 Changed: 4/1/2025 9:47:12 AM, Old:ecc_480, New:ecc_470
Excitation Wavelength Changed: 4/1/2025 9:48:04 AM, Old: 470.00, New: 515.00
Emission Wavelength Changed: 4/1/2025 9:48:04 AM, Old: 475.00, New: 520.00
Sample2 Changed: 4/1/2025 9:48:22 AM, Old:ecc_470, New:ecc_515
Excitation Wavelength Changed: 4/1/2025 9:49:03 AM, Old: 515.00, New: 460.00
Emission Wavelength Changed: 4/1/2025 9:49:03 AM, Old: 520.00, New: 465.00
Sample2 Changed: 4/1/2025 9:49:23 AM, Old:ecc_515, New:ecc_460
Excitation Wavelength Changed: 4/1/2025 10:13:40 AM, Old: 460.00, New: 526.00
Emission Wavelength Changed: 4/1/2025 10:13:40 AM, Old: 465.00, New: 535.00
Sample2 Changed: 4/1/2025 10:15:24 AM, Old:ecc_460, New:ecc_526
PMT Volts Changed: 4/1/2025 10:16:50 AM, Old:490, New:495
Emission PMT (V): Changed: 4/1/2025 10:16:51 AM, Old: 490, New: 495
Zero Mode Changed: 4/1/2025 10:16:51 AM, Old:ON, New:OFF
Sample2 Changed: 4/1/2025 10:17:11 AM, Old:ecc_526, New:ecc_526_05
PMT Volts Changed: 4/1/2025 10:19:28 AM, Old:495, New:500
Emission PMT (V): Changed: 4/1/2025 10:19:28 AM, Old: 495, New: 500
PMT Volts Changed: 4/1/2025 10:20:20 AM, Old:500, New:503
Emission PMT (V): Changed: 4/1/2025 10:20:20 AM, Old: 500, New: 503
PMT Volts Changed: 4/1/2025 10:20:56 AM, Old:503, New:500
Emission PMT (V): Changed: 4/1/2025 10:20:56 AM, Old: 503, New: 500
Sample2 Changed: 4/1/2025 10:45:38 AM, Old:ecc_526_05, New:ecc_526_04
Sample2 Changed: 4/1/2025 10:49:30 AM, Old:ecc_526_04, New:ecc_526_04_2
Sample2 Changed: 4/1/2025 11:13:17 AM, Old:ecc_526_04_2, New:ecc_526_03
Sample2 Changed: 4/1/2025 11:24:04 AM, Old:ecc_526_03, New:ecc_526_02
Sample2 Changed: 4/1/2025 11:34:59 AM, Old:ecc_526_02, New:ecc_526_01
Sample2 Changed: 4/1/2025 11:43:15 AM, Old:ecc_526_01, New:ecc_526_008
Sample2 Changed: 4/1/2025 11:54:05 AM, Old:ecc_526_008, New:ecc_526_006
Sample2 Changed: 4/1/2025 12:12:56 PM, Old:ecc_526_006, New:ecc_526_004
Sample2 Changed: 4/1/2025 12:30:33 PM, Old:ecc_526_004, New:ecc_526_002
Sample2 Changed: 4/1/2025 12:37:06 PM, Old:ecc_526_002, New:ecc_526_001
Sample2 Changed: 4/1/2025 12:39:13 PM, Old:ecc_526_001, New:500V
PMT Volts Changed: 4/1/2025 12:40:10 PM, Old:500, New:550
Emission PMT (V): Changed: 4/1/2025 12:40:10 PM, Old: 500, New: 550
Sample2 Changed: 4/1/2025 12:40:31 PM, Old:500V, New:550V
PMT Volts Changed: 4/1/2025 12:41:04 PM, Old:550, New:600
Emission PMT (V): Changed: 4/1/2025 12:41:04 PM, Old: 550, New: 600
Sample2 Changed: 4/1/2025 12:41:23 PM, Old:550V, New:600V
PMT Volts Changed: 4/1/2025 12:41:56 PM, Old:600, New:650
Emission PMT (V): Changed: 4/1/2025 12:41:56 PM, Old: 600, New: 650
Sample2 Changed: 4/1/2025 12:42:13 PM, Old:600V, New:650V
PMT Volts Changed: 4/1/2025 12:42:43 PM, Old:650, New:700
Emission PMT (V): Changed: 4/1/2025 12:42:43 PM, Old: 650, New: 700
Sample2 Changed: 4/1/2025 12:43:02 PM, Old:650V, New:700V
End Method Modifications

750V,
750V
Collection Time: 4/1/2025 12:43:55 PM
Operator Name  :
Scan Software Version: 1.2(147)
Parameter List :
Instrument                        Cary Eclipse
Instrument Serial Number          EL00063371
Data mode                         Fluorescence
Scan mode                         Emission
X Mode                            Wavelength (nm)
Start (nm)                        535.00
Stop (nm)                         650.00
Ex. Wavelength (nm)               526.00
Ex. Slit (nm)                     5
Em. Slit (nm)                     5
Scan rate (nm/min)                600.00
Data interval (nm)                1.0000
Averaging Time (s)                0.1000
Excitation filter                 Auto
Emission filter                   Open
PMT voltage (V)                   750
Corrected spectra                 OFF
Multicell holder                  Multicell
Multi zero                       OFF
Method Log     :
Method Name    : Default
Date/Time stamp: 4/1/2025 9:14:35 AM
Method Modifications:
Overlayed Graphs Changed: 4/1/2025 9:16:26 AM, Old:OFF, New:ON
PMT Volts Changed: 4/1/2025 9:16:26 AM, Old:600, New:480
Cell Changer Changed: 4/1/2025 9:16:26 AM, Old:OFF, New:ON
Cell2 Changed: 4/1/2025 9:16:26 AM, Old:OFF, New:ON
Monitoring device: Changed: 4/1/2025 9:16:26 AM, Old:PCB 150, New:Block
User Delta Stop Changed: 4/1/2025 9:16:26 AM, Old: 450.00, New: 526.00
User Delta Increment Changed: 4/1/2025 9:16:26 AM, Old:  10.00, New:   0.15
Emission PMT (V): Changed: 4/1/2025 9:16:26 AM, Old: 600, New: 480
Excitation Wavelength Changed: 4/1/2025 9:16:26 AM, Old: 350.00, New: 526.00
Emission Wavelength Changed: 4/1/2025 9:16:26 AM, Old: 400.00, New: 535.00
Stop Wavelength Changed: 4/1/2025 9:16:26 AM, Old: 600.00, New: 650.00
Scan mode: Changed: 4/1/2025 9:17:18 AM, Old:Emission, New:Excitation
User Delta Stop Changed: 4/1/2025 9:17:18 AM, Old: 526.00, New: 555.00
Excitation Wavelength Changed: 4/1/2025 9:17:18 AM, Old: 526.00, New: 400.00
Emission Wavelength Changed: 4/1/2025 9:17:18 AM, Old: 535.00, New: 555.00
Stop Wavelength Changed: 4/1/2025 9:17:18 AM, Old: 650.00, New: 550.00
PMT Volts Changed: 4/1/2025 9:20:58 AM, Old:480, New:490
Scan mode: Changed: 4/1/2025 9:20:58 AM, Old:Excitation, New:Emission
Emission PMT (V): Changed: 4/1/2025 9:20:58 AM, Old: 480, New: 490
Excitation Wavelength Changed: 4/1/2025 9:20:58 AM, Old: 400.00, New: 526.00
Emission Wavelength Changed: 4/1/2025 9:20:58 AM, Old: 555.00, New: 535.00
Stop Wavelength Changed: 4/1/2025 9:20:58 AM, Old: 550.00, New: 650.00
Scan mode: Changed: 4/1/2025 9:22:17 AM, Old:Emission, New:Excitation
Excitation Wavelength Changed: 4/1/2025 9:22:17 AM, Old: 526.00, New: 400.00
Emission Wavelength Changed: 4/1/2025 9:22:17 AM, Old: 535.00, New: 555.00
Stop Wavelength Changed: 4/1/2025 9:22:17 AM, Old: 650.00, New: 550.00
Zero Mode Changed: 4/1/2025 9:27:29 AM, Old:OFF, New:Reading
Zero Mode Changed: 4/1/2025 9:27:29 AM, Old:Reading, New:ON
Scan mode: Changed: 4/1/2025 9:29:46 AM, Old:Excitation, New:Emission
Excitation Wavelength Changed: 4/1/2025 9:29:46 AM, Old: 400.00, New: 500.00
Emission Wavelength Changed: 4/1/2025 9:29:46 AM, Old: 555.00, New: 505.00
Stop Wavelength Changed: 4/1/2025 9:29:46 AM, Old: 550.00, New: 650.00
Sample2 Changed: 4/1/2025 9:30:34 AM, Old:Sample2, New:ecc_500
Excitation Wavelength Changed: 4/1/2025 9:37:32 AM, Old: 500.00, New: 510.00
Emission Wavelength Changed: 4/1/2025 9:37:32 AM, Old: 505.00, New: 515.00
Sample2 Changed: 4/1/2025 9:37:59 AM, Old:ecc_500, New:ecc_510
Excitation Wavelength Changed: 4/1/2025 9:40:38 AM, Old: 510.00, New: 520.00
Emission Wavelength Changed: 4/1/2025 9:40:38 AM, Old: 515.00, New: 525.00
Sample2 Changed: 4/1/2025 9:41:05 AM, Old:ecc_510, New:ecc_520
Excitation Wavelength Changed: 4/1/2025 9:42:10 AM, Old: 520.00, New: 490.00
Emission Wavelength Changed: 4/1/2025 9:42:10 AM, Old: 525.00, New: 495.00
Sample2 Changed: 4/1/2025 9:42:28 AM, Old:ecc_520, New:ecc_490
Excitation Wavelength Changed: 4/1/2025 9:43:42 AM, Old: 490.00, New: 530.00
Emission Wavelength Changed: 4/1/2025 9:43:42 AM, Old: 495.00, New: 535.00
Sample2 Changed: 4/1/2025 9:44:02 AM, Old:ecc_490, New:ecc_530
Excitation Wavelength Changed: 4/1/2025 9:44:50 AM, Old: 530.00, New: 526.00
Emission Wavelength Changed: 4/1/2025 9:44:50 AM, Old: 535.00, New: 531.00
Sample2 Changed: 4/1/2025 9:45:08 AM, Old:ecc_530, New:ecc_526
Excitation Wavelength Changed: 4/1/2025 9:45:50 AM, Old: 526.00, New: 480.00
Emission Wavelength Changed: 4/1/2025 9:45:50 AM, Old: 531.00, New: 485.00
Sample2 Changed: 4/1/2025 9:46:10 AM, Old:ecc_526, New:ecc_480
Excitation Wavelength Changed: 4/1/2025 9:46:49 AM, Old: 480.00, New: 470.00
Emission Wavelength Changed: 4/1/2025 9:46:49 AM, Old: 485.00, New: 475.00
Sample2 Changed: 4/1/2025 9:47:12 AM, Old:ecc_480, New:ecc_470
Excitation Wavelength Changed: 4/1/2025 9:48:04 AM, Old: 470.00, New: 515.00
Emission Wavelength Changed: 4/1/2025 9:48:04 AM, Old: 475.00, New: 520.00
Sample2 Changed: 4/1/2025 9:48:22 AM, Old:ecc_470, New:ecc_515
Excitation Wavelength Changed: 4/1/2025 9:49:03 AM, Old: 515.00, New: 460.00
Emission Wavelength Changed: 4/1/2025 9:49:03 AM, Old: 520.00, New: 465.00
Sample2 Changed: 4/1/2025 9:49:23 AM, Old:ecc_515, New:ecc_460
Excitation Wavelength Changed: 4/1/2025 10:13:40 AM, Old: 460.00, New: 526.00
Emission Wavelength Changed: 4/1/2025 10:13:40 AM, Old: 465.00, New: 535.00
Sample2 Changed: 4/1/2025 10:15:24 AM, Old:ecc_460, New:ecc_526
PMT Volts Changed: 4/1/2025 10:16:50 AM, Old:490, New:495
Emission PMT (V): Changed: 4/1/2025 10:16:51 AM, Old: 490, New: 495
Zero Mode Changed: 4/1/2025 10:16:51 AM, Old:ON, New:OFF
Sample2 Changed: 4/1/2025 10:17:11 AM, Old:ecc_526, New:ecc_526_05
PMT Volts Changed: 4/1/2025 10:19:28 AM, Old:495, New:500
Emission PMT (V): Changed: 4/1/2025 10:19:28 AM, Old: 495, New: 500
PMT Volts Changed: 4/1/2025 10:20:20 AM, Old:500, New:503
Emission PMT (V): Changed: 4/1/2025 10:20:20 AM, Old: 500, New: 503
PMT Volts Changed: 4/1/2025 10:20:56 AM, Old:503, New:500
Emission PMT (V): Changed: 4/1/2025 10:20:56 AM, Old: 503, New: 500
Sample2 Changed: 4/1/2025 10:45:38 AM, Old:ecc_526_05, New:ecc_526_04
Sample2 Changed: 4/1/2025 10:49:30 AM, Old:ecc_526_04, New:ecc_526_04_2
Sample2 Changed: 4/1/2025 11:13:17 AM, Old:ecc_526_04_2, New:ecc_526_03
Sample2 Changed: 4/1/2025 11:24:04 AM, Old:ecc_526_03, New:ecc_526_02
Sample2 Changed: 4/1/2025 11:34:59 AM, Old:ecc_526_02, New:ecc_526_01
Sample2 Changed: 4/1/2025 11:43:15 AM, Old:ecc_526_01, New:ecc_526_008
Sample2 Changed: 4/1/2025 11:54:05 AM, Old:ecc_526_008, New:ecc_526_006
Sample2 Changed: 4/1/2025 12:12:56 PM, Old:ecc_526_006, New:ecc_526_004
Sample2 Changed: 4/1/2025 12:30:33 PM, Old:ecc_526_004, New:ecc_526_002
Sample2 Changed: 4/1/2025 12:37:06 PM, Old:ecc_526_002, New:ecc_526_001
Sample2 Changed: 4/1/2025 12:39:13 PM, Old:ecc_526_001, New:500V
PMT Volts Changed: 4/1/2025 12:40:10 PM, Old:500, New:550
Emission PMT (V): Changed: 4/1/2025 12:40:10 PM, Old: 500, New: 550
Sample2 Changed: 4/1/2025 12:40:31 PM, Old:500V, New:550V
PMT Volts Changed: 4/1/2025 12:41:04 PM, Old:550, New:600
Emission PMT (V): Changed: 4/1/2025 12:41:04 PM, Old: 550, New: 600
Sample2 Changed: 4/1/2025 12:41:23 PM, Old:550V, New:600V
PMT Volts Changed: 4/1/2025 12:41:56 PM, Old:600, New:650
Emission PMT (V): Changed: 4/1/2025 12:41:56 PM, Old: 600, New: 650
Sample2 Changed: 4/1/2025 12:42:13 PM, Old:600V, New:650V
PMT Volts Changed: 4/1/2025 12:42:43 PM, Old:650, New:700
Emission PMT (V): Changed: 4/1/2025 12:42:43 PM, Old: 650, New: 700
Sample2 Changed: 4/1/2025 12:43:02 PM, Old:650V, New:700V
PMT Volts Changed: 4/1/2025 12:43:36 PM, Old:700, New:750
Emission PMT (V): Changed: 4/1/2025 12:43:36 PM, Old: 700, New: 750
Sample2 Changed: 4/1/2025 12:43:55 PM, Old:700V, New:750V
End Method Modifications

800V,
800V
Collection Time: 4/1/2025 12:44:40 PM
Operator Name  :
Scan Software Version: 1.2(147)
Parameter List :
Instrument                        Cary Eclipse
Instrument Serial Number          EL00063371
Data mode                         Fluorescence
Scan mode                         Emission
X Mode                            Wavelength (nm)
Start (nm)                        535.00
Stop (nm)                         650.00
Ex. Wavelength (nm)               526.00
Ex. Slit (nm)                     5
Em. Slit (nm)                     5
Scan rate (nm/min)                600.00
Data interval (nm)                1.0000
Averaging Time (s)                0.1000
Excitation filter                 Auto
Emission filter                   Open
PMT voltage (V)                   800
Corrected spectra                 OFF
Multicell holder                  Multicell
Multi zero                       OFF
Method Log     :
Method Name    : Default
Date/Time stamp: 4/1/2025 9:14:35 AM
Method Modifications:
Overlayed Graphs Changed: 4/1/2025 9:16:26 AM, Old:OFF, New:ON
PMT Volts Changed: 4/1/2025 9:16:26 AM, Old:600, New:480
Cell Changer Changed: 4/1/2025 9:16:26 AM, Old:OFF, New:ON
Cell2 Changed: 4/1/2025 9:16:26 AM, Old:OFF, New:ON
Monitoring device: Changed: 4/1/2025 9:16:26 AM, Old:PCB 150, New:Block
User Delta Stop Changed: 4/1/2025 9:16:26 AM, Old: 450.00, New: 526.00
User Delta Increment Changed: 4/1/2025 9:16:26 AM, Old:  10.00, New:   0.15
Emission PMT (V): Changed: 4/1/2025 9:16:26 AM, Old: 600, New: 480
Excitation Wavelength Changed: 4/1/2025 9:16:26 AM, Old: 350.00, New: 526.00
Emission Wavelength Changed: 4/1/2025 9:16:26 AM, Old: 400.00, New: 535.00
Stop Wavelength Changed: 4/1/2025 9:16:26 AM, Old: 600.00, New: 650.00
Scan mode: Changed: 4/1/2025 9:17:18 AM, Old:Emission, New:Excitation
User Delta Stop Changed: 4/1/2025 9:17:18 AM, Old: 526.00, New: 555.00
Excitation Wavelength Changed: 4/1/2025 9:17:18 AM, Old: 526.00, New: 400.00
Emission Wavelength Changed: 4/1/2025 9:17:18 AM, Old: 535.00, New: 555.00
Stop Wavelength Changed: 4/1/2025 9:17:18 AM, Old: 650.00, New: 550.00
PMT Volts Changed: 4/1/2025 9:20:58 AM, Old:480, New:490
Scan mode: Changed: 4/1/2025 9:20:58 AM, Old:Excitation, New:Emission
Emission PMT (V): Changed: 4/1/2025 9:20:58 AM, Old: 480, New: 490
Excitation Wavelength Changed: 4/1/2025 9:20:58 AM, Old: 400.00, New: 526.00
Emission Wavelength Changed: 4/1/2025 9:20:58 AM, Old: 555.00, New: 535.00
Stop Wavelength Changed: 4/1/2025 9:20:58 AM, Old: 550.00, New: 650.00
Scan mode: Changed: 4/1/2025 9:22:17 AM, Old:Emission, New:Excitation
Excitation Wavelength Changed: 4/1/2025 9:22:17 AM, Old: 526.00, New: 400.00
Emission Wavelength Changed: 4/1/2025 9:22:17 AM, Old: 535.00, New: 555.00
Stop Wavelength Changed: 4/1/2025 9:22:17 AM, Old: 650.00, New: 550.00
Zero Mode Changed: 4/1/2025 9:27:29 AM, Old:OFF, New:Reading
Zero Mode Changed: 4/1/2025 9:27:29 AM, Old:Reading, New:ON
Scan mode: Changed: 4/1/2025 9:29:46 AM, Old:Excitation, New:Emission
Excitation Wavelength Changed: 4/1/2025 9:29:46 AM, Old: 400.00, New: 500.00
Emission Wavelength Changed: 4/1/2025 9:29:46 AM, Old: 555.00, New: 505.00
Stop Wavelength Changed: 4/1/2025 9:29:46 AM, Old: 550.00, New: 650.00
Sample2 Changed: 4/1/2025 9:30:34 AM, Old:Sample2, New:ecc_500
Excitation Wavelength Changed: 4/1/2025 9:37:32 AM, Old: 500.00, New: 510.00
Emission Wavelength Changed: 4/1/2025 9:37:32 AM, Old: 505.00, New: 515.00
Sample2 Changed: 4/1/2025 9:37:59 AM, Old:ecc_500, New:ecc_510
Excitation Wavelength Changed: 4/1/2025 9:40:38 AM, Old: 510.00, New: 520.00
Emission Wavelength Changed: 4/1/2025 9:40:38 AM, Old: 515.00, New: 525.00
Sample2 Changed: 4/1/2025 9:41:05 AM, Old:ecc_510, New:ecc_520
Excitation Wavelength Changed: 4/1/2025 9:42:10 AM, Old: 520.00, New: 490.00
Emission Wavelength Changed: 4/1/2025 9:42:10 AM, Old: 525.00, New: 495.00
Sample2 Changed: 4/1/2025 9:42:28 AM, Old:ecc_520, New:ecc_490
Excitation Wavelength Changed: 4/1/2025 9:43:42 AM, Old: 490.00, New: 530.00
Emission Wavelength Changed: 4/1/2025 9:43:42 AM, Old: 495.00, New: 535.00
Sample2 Changed: 4/1/2025 9:44:02 AM, Old:ecc_490, New:ecc_530
Excitation Wavelength Changed: 4/1/2025 9:44:50 AM, Old: 530.00, New: 526.00
Emission Wavelength Changed: 4/1/2025 9:44:50 AM, Old: 535.00, New: 531.00
Sample2 Changed: 4/1/2025 9:45:08 AM, Old:ecc_530, New:ecc_526
Excitation Wavelength Changed: 4/1/2025 9:45:50 AM, Old: 526.00, New: 480.00
Emission Wavelength Changed: 4/1/2025 9:45:50 AM, Old: 531.00, New: 485.00
Sample2 Changed: 4/1/2025 9:46:10 AM, Old:ecc_526, New:ecc_480
Excitation Wavelength Changed: 4/1/2025 9:46:49 AM, Old: 480.00, New: 470.00
Emission Wavelength Changed: 4/1/2025 9:46:49 AM, Old: 485.00, New: 475.00
Sample2 Changed: 4/1/2025 9:47:12 AM, Old:ecc_480, New:ecc_470
Excitation Wavelength Changed: 4/1/2025 9:48:04 AM, Old: 470.00, New: 515.00
Emission Wavelength Changed: 4/1/2025 9:48:04 AM, Old: 475.00, New: 520.00
Sample2 Changed: 4/1/2025 9:48:22 AM, Old:ecc_470, New:ecc_515
Excitation Wavelength Changed: 4/1/2025 9:49:03 AM, Old: 515.00, New: 460.00
Emission Wavelength Changed: 4/1/2025 9:49:03 AM, Old: 520.00, New: 465.00
Sample2 Changed: 4/1/2025 9:49:23 AM, Old:ecc_515, New:ecc_460
Excitation Wavelength Changed: 4/1/2025 10:13:40 AM, Old: 460.00, New: 526.00
Emission Wavelength Changed: 4/1/2025 10:13:40 AM, Old: 465.00, New: 535.00
Sample2 Changed: 4/1/2025 10:15:24 AM, Old:ecc_460, New:ecc_526
PMT Volts Changed: 4/1/2025 10:16:50 AM, Old:490, New:495
Emission PMT (V): Changed: 4/1/2025 10:16:51 AM, Old: 490, New: 495
Zero Mode Changed: 4/1/2025 10:16:51 AM, Old:ON, New:OFF
Sample2 Changed: 4/1/2025 10:17:11 AM, Old:ecc_526, New:ecc_526_05
PMT Volts Changed: 4/1/2025 10:19:28 AM, Old:495, New:500
Emission PMT (V): Changed: 4/1/2025 10:19:28 AM, Old: 495, New: 500
PMT Volts Changed: 4/1/2025 10:20:20 AM, Old:500, New:503
Emission PMT (V): Changed: 4/1/2025 10:20:20 AM, Old: 500, New: 503
PMT Volts Changed: 4/1/2025 10:20:56 AM, Old:503, New:500
Emission PMT (V): Changed: 4/1/2025 10:20:56 AM, Old: 503, New: 500
Sample2 Changed: 4/1/2025 10:45:38 AM, Old:ecc_526_05, New:ecc_526_04
Sample2 Changed: 4/1/2025 10:49:30 AM, Old:ecc_526_04, New:ecc_526_04_2
Sample2 Changed: 4/1/2025 11:13:17 AM, Old:ecc_526_04_2, New:ecc_526_03
Sample2 Changed: 4/1/2025 11:24:04 AM, Old:ecc_526_03, New:ecc_526_02
Sample2 Changed: 4/1/2025 11:34:59 AM, Old:ecc_526_02, New:ecc_526_01
Sample2 Changed: 4/1/2025 11:43:15 AM, Old:ecc_526_01, New:ecc_526_008
Sample2 Changed: 4/1/2025 11:54:05 AM, Old:ecc_526_008, New:ecc_526_006
Sample2 Changed: 4/1/2025 12:12:56 PM, Old:ecc_526_006, New:ecc_526_004
Sample2 Changed: 4/1/2025 12:30:33 PM, Old:ecc_526_004, New:ecc_526_002
Sample2 Changed: 4/1/2025 12:37:06 PM, Old:ecc_526_002, New:ecc_526_001
Sample2 Changed: 4/1/2025 12:39:13 PM, Old:ecc_526_001, New:500V
PMT Volts Changed: 4/1/2025 12:40:10 PM, Old:500, New:550
Emission PMT (V): Changed: 4/1/2025 12:40:10 PM, Old: 500, New: 550
Sample2 Changed: 4/1/2025 12:40:31 PM, Old:500V, New:550V
PMT Volts Changed: 4/1/2025 12:41:04 PM, Old:550, New:600
Emission PMT (V): Changed: 4/1/2025 12:41:04 PM, Old: 550, New: 600
Sample2 Changed: 4/1/2025 12:41:23 PM, Old:550V, New:600V
PMT Volts Changed: 4/1/2025 12:41:56 PM, Old:600, New:650
Emission PMT (V): Changed: 4/1/2025 12:41:56 PM, Old: 600, New: 650
Sample2 Changed: 4/1/2025 12:42:13 PM, Old:600V, New:650V
PMT Volts Changed: 4/1/2025 12:42:43 PM, Old:650, New:700
Emission PMT (V): Changed: 4/1/2025 12:42:43 PM, Old: 650, New: 700
Sample2 Changed: 4/1/2025 12:43:02 PM, Old:650V, New:700V
PMT Volts Changed: 4/1/2025 12:43:36 PM, Old:700, New:750
Emission PMT (V): Changed: 4/1/2025 12:43:36 PM, Old: 700, New: 750
Sample2 Changed: 4/1/2025 12:43:55 PM, Old:700V, New:750V
PMT Volts Changed: 4/1/2025 12:44:22 PM, Old:750, New:800
Emission PMT (V): Changed: 4/1/2025 12:44:22 PM, Old: 750, New: 800
Sample2 Changed: 4/1/2025 12:44:40 PM, Old:750V, New:800V
End Method Modifications

775V,
775V
Collection Time: 4/1/2025 12:45:41 PM
Operator Name  :
Scan Software Version: 1.2(147)
Parameter List :
Instrument                        Cary Eclipse
Instrument Serial Number          EL00063371
Data mode                         Fluorescence
Scan mode                         Emission
X Mode                            Wavelength (nm)
Start (nm)                        535.00
Stop (nm)                         650.00
Ex. Wavelength (nm)               526.00
Ex. Slit (nm)                     5
Em. Slit (nm)                     5
Scan rate (nm/min)                600.00
Data interval (nm)                1.0000
Averaging Time (s)                0.1000
Excitation filter                 Auto
Emission filter                   Open
PMT voltage (V)                   775
Corrected spectra                 OFF
Multicell holder                  Multicell
Multi zero                       OFF
Method Log     :
Method Name    : Default
Date/Time stamp: 4/1/2025 9:14:35 AM
Method Modifications:
Overlayed Graphs Changed: 4/1/2025 9:16:26 AM, Old:OFF, New:ON
PMT Volts Changed: 4/1/2025 9:16:26 AM, Old:600, New:480
Cell Changer Changed: 4/1/2025 9:16:26 AM, Old:OFF, New:ON
Cell2 Changed: 4/1/2025 9:16:26 AM, Old:OFF, New:ON
Monitoring device: Changed: 4/1/2025 9:16:26 AM, Old:PCB 150, New:Block
User Delta Stop Changed: 4/1/2025 9:16:26 AM, Old: 450.00, New: 526.00
User Delta Increment Changed: 4/1/2025 9:16:26 AM, Old:  10.00, New:   0.15
Emission PMT (V): Changed: 4/1/2025 9:16:26 AM, Old: 600, New: 480
Excitation Wavelength Changed: 4/1/2025 9:16:26 AM, Old: 350.00, New: 526.00
Emission Wavelength Changed: 4/1/2025 9:16:26 AM, Old: 400.00, New: 535.00
Stop Wavelength Changed: 4/1/2025 9:16:26 AM, Old: 600.00, New: 650.00
Scan mode: Changed: 4/1/2025 9:17:18 AM, Old:Emission, New:Excitation
User Delta Stop Changed: 4/1/2025 9:17:18 AM, Old: 526.00, New: 555.00
Excitation Wavelength Changed: 4/1/2025 9:17:18 AM, Old: 526.00, New: 400.00
Emission Wavelength Changed: 4/1/2025 9:17:18 AM, Old: 535.00, New: 555.00
Stop Wavelength Changed: 4/1/2025 9:17:18 AM, Old: 650.00, New: 550.00
PMT Volts Changed: 4/1/2025 9:20:58 AM, Old:480, New:490
Scan mode: Changed: 4/1/2025 9:20:58 AM, Old:Excitation, New:Emission
Emission PMT (V): Changed: 4/1/2025 9:20:58 AM, Old: 480, New: 490
Excitation Wavelength Changed: 4/1/2025 9:20:58 AM, Old: 400.00, New: 526.00
Emission Wavelength Changed: 4/1/2025 9:20:58 AM, Old: 555.00, New: 535.00
Stop Wavelength Changed: 4/1/2025 9:20:58 AM, Old: 550.00, New: 650.00
Scan mode: Changed: 4/1/2025 9:22:17 AM, Old:Emission, New:Excitation
Excitation Wavelength Changed: 4/1/2025 9:22:17 AM, Old: 526.00, New: 400.00
Emission Wavelength Changed: 4/1/2025 9:22:17 AM, Old: 535.00, New: 555.00
Stop Wavelength Changed: 4/1/2025 9:22:17 AM, Old: 650.00, New: 550.00
Zero Mode Changed: 4/1/2025 9:27:29 AM, Old:OFF, New:Reading
Zero Mode Changed: 4/1/2025 9:27:29 AM, Old:Reading, New:ON
Scan mode: Changed: 4/1/2025 9:29:46 AM, Old:Excitation, New:Emission
Excitation Wavelength Changed: 4/1/2025 9:29:46 AM, Old: 400.00, New: 500.00
Emission Wavelength Changed: 4/1/2025 9:29:46 AM, Old: 555.00, New: 505.00
Stop Wavelength Changed: 4/1/2025 9:29:46 AM, Old: 550.00, New: 650.00
Sample2 Changed: 4/1/2025 9:30:34 AM, Old:Sample2, New:ecc_500
Excitation Wavelength Changed: 4/1/2025 9:37:32 AM, Old: 500.00, New: 510.00
Emission Wavelength Changed: 4/1/2025 9:37:32 AM, Old: 505.00, New: 515.00
Sample2 Changed: 4/1/2025 9:37:59 AM, Old:ecc_500, New:ecc_510
Excitation Wavelength Changed: 4/1/2025 9:40:38 AM, Old: 510.00, New: 520.00
Emission Wavelength Changed: 4/1/2025 9:40:38 AM, Old: 515.00, New: 525.00
Sample2 Changed: 4/1/2025 9:41:05 AM, Old:ecc_510, New:ecc_520
Excitation Wavelength Changed: 4/1/2025 9:42:10 AM, Old: 520.00, New: 490.00
Emission Wavelength Changed: 4/1/2025 9:42:10 AM, Old: 525.00, New: 495.00
Sample2 Changed: 4/1/2025 9:42:28 AM, Old:ecc_520, New:ecc_490
Excitation Wavelength Changed: 4/1/2025 9:43:42 AM, Old: 490.00, New: 530.00
Emission Wavelength Changed: 4/1/2025 9:43:42 AM, Old: 495.00, New: 535.00
Sample2 Changed: 4/1/2025 9:44:02 AM, Old:ecc_490, New:ecc_530
Excitation Wavelength Changed: 4/1/2025 9:44:50 AM, Old: 530.00, New: 526.00
Emission Wavelength Changed: 4/1/2025 9:44:50 AM, Old: 535.00, New: 531.00
Sample2 Changed: 4/1/2025 9:45:08 AM, Old:ecc_530, New:ecc_526
Excitation Wavelength Changed: 4/1/2025 9:45:50 AM, Old: 526.00, New: 480.00
Emission Wavelength Changed: 4/1/2025 9:45:50 AM, Old: 531.00, New: 485.00
Sample2 Changed: 4/1/2025 9:46:10 AM, Old:ecc_526, New:ecc_480
Excitation Wavelength Changed: 4/1/2025 9:46:49 AM, Old: 480.00, New: 470.00
Emission Wavelength Changed: 4/1/2025 9:46:49 AM, Old: 485.00, New: 475.00
Sample2 Changed: 4/1/2025 9:47:12 AM, Old:ecc_480, New:ecc_470
Excitation Wavelength Changed: 4/1/2025 9:48:04 AM, Old: 470.00, New: 515.00
Emission Wavelength Changed: 4/1/2025 9:48:04 AM, Old: 475.00, New: 520.00
Sample2 Changed: 4/1/2025 9:48:22 AM, Old:ecc_470, New:ecc_515
Excitation Wavelength Changed: 4/1/2025 9:49:03 AM, Old: 515.00, New: 460.00
Emission Wavelength Changed: 4/1/2025 9:49:03 AM, Old: 520.00, New: 465.00
Sample2 Changed: 4/1/2025 9:49:23 AM, Old:ecc_515, New:ecc_460
Excitation Wavelength Changed: 4/1/2025 10:13:40 AM, Old: 460.00, New: 526.00
Emission Wavelength Changed: 4/1/2025 10:13:40 AM, Old: 465.00, New: 535.00
Sample2 Changed: 4/1/2025 10:15:24 AM, Old:ecc_460, New:ecc_526
PMT Volts Changed: 4/1/2025 10:16:50 AM, Old:490, New:495
Emission PMT (V): Changed: 4/1/2025 10:16:51 AM, Old: 490, New: 495
Zero Mode Changed: 4/1/2025 10:16:51 AM, Old:ON, New:OFF
Sample2 Changed: 4/1/2025 10:17:11 AM, Old:ecc_526, New:ecc_526_05
PMT Volts Changed: 4/1/2025 10:19:28 AM, Old:495, New:500
Emission PMT (V): Changed: 4/1/2025 10:19:28 AM, Old: 495, New: 500
PMT Volts Changed: 4/1/2025 10:20:20 AM, Old:500, New:503
Emission PMT (V): Changed: 4/1/2025 10:20:20 AM, Old: 500, New: 503
PMT Volts Changed: 4/1/2025 10:20:56 AM, Old:503, New:500
Emission PMT (V): Changed: 4/1/2025 10:20:56 AM, Old: 503, New: 500
Sample2 Changed: 4/1/2025 10:45:38 AM, Old:ecc_526_05, New:ecc_526_04
Sample2 Changed: 4/1/2025 10:49:30 AM, Old:ecc_526_04, New:ecc_526_04_2
Sample2 Changed: 4/1/2025 11:13:17 AM, Old:ecc_526_04_2, New:ecc_526_03
Sample2 Changed: 4/1/2025 11:24:04 AM, Old:ecc_526_03, New:ecc_526_02
Sample2 Changed: 4/1/2025 11:34:59 AM, Old:ecc_526_02, New:ecc_526_01
Sample2 Changed: 4/1/2025 11:43:15 AM, Old:ecc_526_01, New:ecc_526_008
Sample2 Changed: 4/1/2025 11:54:05 AM, Old:ecc_526_008, New:ecc_526_006
Sample2 Changed: 4/1/2025 12:12:56 PM, Old:ecc_526_006, New:ecc_526_004
Sample2 Changed: 4/1/2025 12:30:33 PM, Old:ecc_526_004, New:ecc_526_002
Sample2 Changed: 4/1/2025 12:37:06 PM, Old:ecc_526_002, New:ecc_526_001
Sample2 Changed: 4/1/2025 12:39:13 PM, Old:ecc_526_001, New:500V
PMT Volts Changed: 4/1/2025 12:40:10 PM, Old:500, New:550
Emission PMT (V): Changed: 4/1/2025 12:40:10 PM, Old: 500, New: 550
Sample2 Changed: 4/1/2025 12:40:31 PM, Old:500V, New:550V
PMT Volts Changed: 4/1/2025 12:41:04 PM, Old:550, New:600
Emission PMT (V): Changed: 4/1/2025 12:41:04 PM, Old: 550, New: 600
Sample2 Changed: 4/1/2025 12:41:23 PM, Old:550V, New:600V
PMT Volts Changed: 4/1/2025 12:41:56 PM, Old:600, New:650
Emission PMT (V): Changed: 4/1/2025 12:41:56 PM, Old: 600, New: 650
Sample2 Changed: 4/1/2025 12:42:13 PM, Old:600V, New:650V
PMT Volts Changed: 4/1/2025 12:42:43 PM, Old:650, New:700
Emission PMT (V): Changed: 4/1/2025 12:42:43 PM, Old: 650, New: 700
Sample2 Changed: 4/1/2025 12:43:02 PM, Old:650V, New:700V
PMT Volts Changed: 4/1/2025 12:43:36 PM, Old:700, New:750
Emission PMT (V): Changed: 4/1/2025 12:43:36 PM, Old: 700, New: 750
Sample2 Changed: 4/1/2025 12:43:55 PM, Old:700V, New:750V
PMT Volts Changed: 4/1/2025 12:44:22 PM, Old:750, New:800
Emission PMT (V): Changed: 4/1/2025 12:44:22 PM, Old: 750, New: 800
Sample2 Changed: 4/1/2025 12:44:40 PM, Old:750V, New:800V
PMT Volts Changed: 4/1/2025 12:45:25 PM, Old:800, New:775
Emission PMT (V): Changed: 4/1/2025 12:45:25 PM, Old: 800, New: 775
Sample2 Changed: 4/1/2025 12:45:41 PM, Old:800V, New:775V
End Method Modifications

725V,
725V
Collection Time: 4/1/2025 12:46:31 PM
Operator Name  :
Scan Software Version: 1.2(147)
Parameter List :
Instrument                        Cary Eclipse
Instrument Serial Number          EL00063371
Data mode                         Fluorescence
Scan mode                         Emission
X Mode                            Wavelength (nm)
Start (nm)                        535.00
Stop (nm)                         650.00
Ex. Wavelength (nm)               526.00
Ex. Slit (nm)                     5
Em. Slit (nm)                     5
Scan rate (nm/min)                600.00
Data interval (nm)                1.0000
Averaging Time (s)                0.1000
Excitation filter                 Auto
Emission filter                   Open
PMT voltage (V)                   725
Corrected spectra                 OFF
Multicell holder                  Multicell
Multi zero                       OFF
Method Log     :
Method Name    : Default
Date/Time stamp: 4/1/2025 9:14:35 AM
Method Modifications:
Overlayed Graphs Changed: 4/1/2025 9:16:26 AM, Old:OFF, New:ON
PMT Volts Changed: 4/1/2025 9:16:26 AM, Old:600, New:480
Cell Changer Changed: 4/1/2025 9:16:26 AM, Old:OFF, New:ON
Cell2 Changed: 4/1/2025 9:16:26 AM, Old:OFF, New:ON
Monitoring device: Changed: 4/1/2025 9:16:26 AM, Old:PCB 150, New:Block
User Delta Stop Changed: 4/1/2025 9:16:26 AM, Old: 450.00, New: 526.00
User Delta Increment Changed: 4/1/2025 9:16:26 AM, Old:  10.00, New:   0.15
Emission PMT (V): Changed: 4/1/2025 9:16:26 AM, Old: 600, New: 480
Excitation Wavelength Changed: 4/1/2025 9:16:26 AM, Old: 350.00, New: 526.00
Emission Wavelength Changed: 4/1/2025 9:16:26 AM, Old: 400.00, New: 535.00
Stop Wavelength Changed: 4/1/2025 9:16:26 AM, Old: 600.00, New: 650.00
Scan mode: Changed: 4/1/2025 9:17:18 AM, Old:Emission, New:Excitation
User Delta Stop Changed: 4/1/2025 9:17:18 AM, Old: 526.00, New: 555.00
Excitation Wavelength Changed: 4/1/2025 9:17:18 AM, Old: 526.00, New: 400.00
Emission Wavelength Changed: 4/1/2025 9:17:18 AM, Old: 535.00, New: 555.00
Stop Wavelength Changed: 4/1/2025 9:17:18 AM, Old: 650.00, New: 550.00
PMT Volts Changed: 4/1/2025 9:20:58 AM, Old:480, New:490
Scan mode: Changed: 4/1/2025 9:20:58 AM, Old:Excitation, New:Emission
Emission PMT (V): Changed: 4/1/2025 9:20:58 AM, Old: 480, New: 490
Excitation Wavelength Changed: 4/1/2025 9:20:58 AM, Old: 400.00, New: 526.00
Emission Wavelength Changed: 4/1/2025 9:20:58 AM, Old: 555.00, New: 535.00
Stop Wavelength Changed: 4/1/2025 9:20:58 AM, Old: 550.00, New: 650.00
Scan mode: Changed: 4/1/2025 9:22:17 AM, Old:Emission, New:Excitation
Excitation Wavelength Changed: 4/1/2025 9:22:17 AM, Old: 526.00, New: 400.00
Emission Wavelength Changed: 4/1/2025 9:22:17 AM, Old: 535.00, New: 555.00
Stop Wavelength Changed: 4/1/2025 9:22:17 AM, Old: 650.00, New: 550.00
Zero Mode Changed: 4/1/2025 9:27:29 AM, Old:OFF, New:Reading
Zero Mode Changed: 4/1/2025 9:27:29 AM, Old:Reading, New:ON
Scan mode: Changed: 4/1/2025 9:29:46 AM, Old:Excitation, New:Emission
Excitation Wavelength Changed: 4/1/2025 9:29:46 AM, Old: 400.00, New: 500.00
Emission Wavelength Changed: 4/1/2025 9:29:46 AM, Old: 555.00, New: 505.00
Stop Wavelength Changed: 4/1/2025 9:29:46 AM, Old: 550.00, New: 650.00
Sample2 Changed: 4/1/2025 9:30:34 AM, Old:Sample2, New:ecc_500
Excitation Wavelength Changed: 4/1/2025 9:37:32 AM, Old: 500.00, New: 510.00
Emission Wavelength Changed: 4/1/2025 9:37:32 AM, Old: 505.00, New: 515.00
Sample2 Changed: 4/1/2025 9:37:59 AM, Old:ecc_500, New:ecc_510
Excitation Wavelength Changed: 4/1/2025 9:40:38 AM, Old: 510.00, New: 520.00
Emission Wavelength Changed: 4/1/2025 9:40:38 AM, Old: 515.00, New: 525.00
Sample2 Changed: 4/1/2025 9:41:05 AM, Old:ecc_510, New:ecc_520
Excitation Wavelength Changed: 4/1/2025 9:42:10 AM, Old: 520.00, New: 490.00
Emission Wavelength Changed: 4/1/2025 9:42:10 AM, Old: 525.00, New: 495.00
Sample2 Changed: 4/1/2025 9:42:28 AM, Old:ecc_520, New:ecc_490
Excitation Wavelength Changed: 4/1/2025 9:43:42 AM, Old: 490.00, New: 530.00
Emission Wavelength Changed: 4/1/2025 9:43:42 AM, Old: 495.00, New: 535.00
Sample2 Changed: 4/1/2025 9:44:02 AM, Old:ecc_490, New:ecc_530
Excitation Wavelength Changed: 4/1/2025 9:44:50 AM, Old: 530.00, New: 526.00
Emission Wavelength Changed: 4/1/2025 9:44:50 AM, Old: 535.00, New: 531.00
Sample2 Changed: 4/1/2025 9:45:08 AM, Old:ecc_530, New:ecc_526
Excitation Wavelength Changed: 4/1/2025 9:45:50 AM, Old: 526.00, New: 480.00
Emission Wavelength Changed: 4/1/2025 9:45:50 AM, Old: 531.00, New: 485.00
Sample2 Changed: 4/1/2025 9:46:10 AM, Old:ecc_526, New:ecc_480
Excitation Wavelength Changed: 4/1/2025 9:46:49 AM, Old: 480.00, New: 470.00
Emission Wavelength Changed: 4/1/2025 9:46:49 AM, Old: 485.00, New: 475.00
Sample2 Changed: 4/1/2025 9:47:12 AM, Old:ecc_480, New:ecc_470
Excitation Wavelength Changed: 4/1/2025 9:48:04 AM, Old: 470.00, New: 515.00
Emission Wavelength Changed: 4/1/2025 9:48:04 AM, Old: 475.00, New: 520.00
Sample2 Changed: 4/1/2025 9:48:22 AM, Old:ecc_470, New:ecc_515
Excitation Wavelength Changed: 4/1/2025 9:49:03 AM, Old: 515.00, New: 460.00
Emission Wavelength Changed: 4/1/2025 9:49:03 AM, Old: 520.00, New: 465.00
Sample2 Changed: 4/1/2025 9:49:23 AM, Old:ecc_515, New:ecc_460
Excitation Wavelength Changed: 4/1/2025 10:13:40 AM, Old: 460.00, New: 526.00
Emission Wavelength Changed: 4/1/2025 10:13:40 AM, Old: 465.00, New: 535.00
Sample2 Changed: 4/1/2025 10:15:24 AM, Old:ecc_460, New:ecc_526
PMT Volts Changed: 4/1/2025 10:16:50 AM, Old:490, New:495
Emission PMT (V): Changed: 4/1/2025 10:16:51 AM, Old: 490, New: 495
Zero Mode Changed: 4/1/2025 10:16:51 AM, Old:ON, New:OFF
Sample2 Changed: 4/1/2025 10:17:11 AM, Old:ecc_526, New:ecc_526_05
PMT Volts Changed: 4/1/2025 10:19:28 AM, Old:495, New:500
Emission PMT (V): Changed: 4/1/2025 10:19:28 AM, Old: 495, New: 500
PMT Volts Changed: 4/1/2025 10:20:20 AM, Old:500, New:503
Emission PMT (V): Changed: 4/1/2025 10:20:20 AM, Old: 500, New: 503
PMT Volts Changed: 4/1/2025 10:20:56 AM, Old:503, New:500
Emission PMT (V): Changed: 4/1/2025 10:20:56 AM, Old: 503, New: 500
Sample2 Changed: 4/1/2025 10:45:38 AM, Old:ecc_526_05, New:ecc_526_04
Sample2 Changed: 4/1/2025 10:49:30 AM, Old:ecc_526_04, New:ecc_526_04_2
Sample2 Changed: 4/1/2025 11:13:17 AM, Old:ecc_526_04_2, New:ecc_526_03
Sample2 Changed: 4/1/2025 11:24:04 AM, Old:ecc_526_03, New:ecc_526_02
Sample2 Changed: 4/1/2025 11:34:59 AM, Old:ecc_526_02, New:ecc_526_01
Sample2 Changed: 4/1/2025 11:43:15 AM, Old:ecc_526_01, New:ecc_526_008
Sample2 Changed: 4/1/2025 11:54:05 AM, Old:ecc_526_008, New:ecc_526_006
Sample2 Changed: 4/1/2025 12:12:56 PM, Old:ecc_526_006, New:ecc_526_004
Sample2 Changed: 4/1/2025 12:30:33 PM, Old:ecc_526_004, New:ecc_526_002
Sample2 Changed: 4/1/2025 12:37:06 PM, Old:ecc_526_002, New:ecc_526_001
Sample2 Changed: 4/1/2025 12:39:13 PM, Old:ecc_526_001, New:500V
PMT Volts Changed: 4/1/2025 12:40:10 PM, Old:500, New:550
Emission PMT (V): Changed: 4/1/2025 12:40:10 PM, Old: 500, New: 550
Sample2 Changed: 4/1/2025 12:40:31 PM, Old:500V, New:550V
PMT Volts Changed: 4/1/2025 12:41:04 PM, Old:550, New:600
Emission PMT (V): Changed: 4/1/2025 12:41:04 PM, Old: 550, New: 600
Sample2 Changed: 4/1/2025 12:41:23 PM, Old:550V, New:600V
PMT Volts Changed: 4/1/2025 12:41:56 PM, Old:600, New:650
Emission PMT (V): Changed: 4/1/2025 12:41:56 PM, Old: 600, New: 650
Sample2 Changed: 4/1/2025 12:42:13 PM, Old:600V, New:650V
PMT Volts Changed: 4/1/2025 12:42:43 PM, Old:650, New:700
Emission PMT (V): Changed: 4/1/2025 12:42:43 PM, Old: 650, New: 700
Sample2 Changed: 4/1/2025 12:43:02 PM, Old:650V, New:700V
PMT Volts Changed: 4/1/2025 12:43:36 PM, Old:700, New:750
Emission PMT (V): Changed: 4/1/2025 12:43:36 PM, Old: 700, New: 750
Sample2 Changed: 4/1/2025 12:43:55 PM, Old:700V, New:750V
PMT Volts Changed: 4/1/2025 12:44:22 PM, Old:750, New:800
Emission PMT (V): Changed: 4/1/2025 12:44:22 PM, Old: 750, New: 800
Sample2 Changed: 4/1/2025 12:44:40 PM, Old:750V, New:800V
PMT Volts Changed: 4/1/2025 12:45:25 PM, Old:800, New:775
Emission PMT (V): Changed: 4/1/2025 12:45:25 PM, Old: 800, New: 775
Sample2 Changed: 4/1/2025 12:45:41 PM, Old:800V, New:775V
PMT Volts Changed: 4/1/2025 12:46:13 PM, Old:775, New:725
Emission PMT (V): Changed: 4/1/2025 12:46:13 PM, Old: 775, New: 725
Sample2 Changed: 4/1/2025 12:46:31 PM, Old:775V, New:725V
End Method Modifications

790V,
790V
Collection Time: 4/1/2025 12:47:13 PM
Operator Name  :
Scan Software Version: 1.2(147)
Parameter List :
Instrument                        Cary Eclipse
Instrument Serial Number          EL00063371
Data mode                         Fluorescence
Scan mode                         Emission
X Mode                            Wavelength (nm)
Start (nm)                        535.00
Stop (nm)                         650.00
Ex. Wavelength (nm)               526.00
Ex. Slit (nm)                     5
Em. Slit (nm)                     5
Scan rate (nm/min)                600.00
Data interval (nm)                1.0000
Averaging Time (s)                0.1000
Excitation filter                 Auto
Emission filter                   Open
PMT voltage (V)                   790
Corrected spectra                 OFF
Multicell holder                  Multicell
Multi zero                       OFF
Method Log     :
Method Name    : Default
Date/Time stamp: 4/1/2025 9:14:35 AM
Method Modifications:
Overlayed Graphs Changed: 4/1/2025 9:16:26 AM, Old:OFF, New:ON
PMT Volts Changed: 4/1/2025 9:16:26 AM, Old:600, New:480
Cell Changer Changed: 4/1/2025 9:16:26 AM, Old:OFF, New:ON
Cell2 Changed: 4/1/2025 9:16:26 AM, Old:OFF, New:ON
Monitoring device: Changed: 4/1/2025 9:16:26 AM, Old:PCB 150, New:Block
User Delta Stop Changed: 4/1/2025 9:16:26 AM, Old: 450.00, New: 526.00
User Delta Increment Changed: 4/1/2025 9:16:26 AM, Old:  10.00, New:   0.15
Emission PMT (V): Changed: 4/1/2025 9:16:26 AM, Old: 600, New: 480
Excitation Wavelength Changed: 4/1/2025 9:16:26 AM, Old: 350.00, New: 526.00
Emission Wavelength Changed: 4/1/2025 9:16:26 AM, Old: 400.00, New: 535.00
Stop Wavelength Changed: 4/1/2025 9:16:26 AM, Old: 600.00, New: 650.00
Scan mode: Changed: 4/1/2025 9:17:18 AM, Old:Emission, New:Excitation
User Delta Stop Changed: 4/1/2025 9:17:18 AM, Old: 526.00, New: 555.00
Excitation Wavelength Changed: 4/1/2025 9:17:18 AM, Old: 526.00, New: 400.00
Emission Wavelength Changed: 4/1/2025 9:17:18 AM, Old: 535.00, New: 555.00
Stop Wavelength Changed: 4/1/2025 9:17:18 AM, Old: 650.00, New: 550.00
PMT Volts Changed: 4/1/2025 9:20:58 AM, Old:480, New:490
Scan mode: Changed: 4/1/2025 9:20:58 AM, Old:Excitation, New:Emission
Emission PMT (V): Changed: 4/1/2025 9:20:58 AM, Old: 480, New: 490
Excitation Wavelength Changed: 4/1/2025 9:20:58 AM, Old: 400.00, New: 526.00
Emission Wavelength Changed: 4/1/2025 9:20:58 AM, Old: 555.00, New: 535.00
Stop Wavelength Changed: 4/1/2025 9:20:58 AM, Old: 550.00, New: 650.00
Scan mode: Changed: 4/1/2025 9:22:17 AM, Old:Emission, New:Excitation
Excitation Wavelength Changed: 4/1/2025 9:22:17 AM, Old: 526.00, New: 400.00
Emission Wavelength Changed: 4/1/2025 9:22:17 AM, Old: 535.00, New: 555.00
Stop Wavelength Changed: 4/1/2025 9:22:17 AM, Old: 650.00, New: 550.00
Zero Mode Changed: 4/1/2025 9:27:29 AM, Old:OFF, New:Reading
Zero Mode Changed: 4/1/2025 9:27:29 AM, Old:Reading, New:ON
Scan mode: Changed: 4/1/2025 9:29:46 AM, Old:Excitation, New:Emission
Excitation Wavelength Changed: 4/1/2025 9:29:46 AM, Old: 400.00, New: 500.00
Emission Wavelength Changed: 4/1/2025 9:29:46 AM, Old: 555.00, New: 505.00
Stop Wavelength Changed: 4/1/2025 9:29:46 AM, Old: 550.00, New: 650.00
Sample2 Changed: 4/1/2025 9:30:34 AM, Old:Sample2, New:ecc_500
Excitation Wavelength Changed: 4/1/2025 9:37:32 AM, Old: 500.00, New: 510.00
Emission Wavelength Changed: 4/1/2025 9:37:32 AM, Old: 505.00, New: 515.00
Sample2 Changed: 4/1/2025 9:37:59 AM, Old:ecc_500, New:ecc_510
Excitation Wavelength Changed: 4/1/2025 9:40:38 AM, Old: 510.00, New: 520.00
Emission Wavelength Changed: 4/1/2025 9:40:38 AM, Old: 515.00, New: 525.00
Sample2 Changed: 4/1/2025 9:41:05 AM, Old:ecc_510, New:ecc_520
Excitation Wavelength Changed: 4/1/2025 9:42:10 AM, Old: 520.00, New: 490.00
Emission Wavelength Changed: 4/1/2025 9:42:10 AM, Old: 525.00, New: 495.00
Sample2 Changed: 4/1/2025 9:42:28 AM, Old:ecc_520, New:ecc_490
Excitation Wavelength Changed: 4/1/2025 9:43:42 AM, Old: 490.00, New: 530.00
Emission Wavelength Changed: 4/1/2025 9:43:42 AM, Old: 495.00, New: 535.00
Sample2 Changed: 4/1/2025 9:44:02 AM, Old:ecc_490, New:ecc_530
Excitation Wavelength Changed: 4/1/2025 9:44:50 AM, Old: 530.00, New: 526.00
Emission Wavelength Changed: 4/1/2025 9:44:50 AM, Old: 535.00, New: 531.00
Sample2 Changed: 4/1/2025 9:45:08 AM, Old:ecc_530, New:ecc_526
Excitation Wavelength Changed: 4/1/2025 9:45:50 AM, Old: 526.00, New: 480.00
Emission Wavelength Changed: 4/1/2025 9:45:50 AM, Old: 531.00, New: 485.00
Sample2 Changed: 4/1/2025 9:46:10 AM, Old:ecc_526, New:ecc_480
Excitation Wavelength Changed: 4/1/2025 9:46:49 AM, Old: 480.00, New: 470.00
Emission Wavelength Changed: 4/1/2025 9:46:49 AM, Old: 485.00, New: 475.00
Sample2 Changed: 4/1/2025 9:47:12 AM, Old:ecc_480, New:ecc_470
Excitation Wavelength Changed: 4/1/2025 9:48:04 AM, Old: 470.00, New: 515.00
Emission Wavelength Changed: 4/1/2025 9:48:04 AM, Old: 475.00, New: 520.00
Sample2 Changed: 4/1/2025 9:48:22 AM, Old:ecc_470, New:ecc_515
Excitation Wavelength Changed: 4/1/2025 9:49:03 AM, Old: 515.00, New: 460.00
Emission Wavelength Changed: 4/1/2025 9:49:03 AM, Old: 520.00, New: 465.00
Sample2 Changed: 4/1/2025 9:49:23 AM, Old:ecc_515, New:ecc_460
Excitation Wavelength Changed: 4/1/2025 10:13:40 AM, Old: 460.00, New: 526.00
Emission Wavelength Changed: 4/1/2025 10:13:40 AM, Old: 465.00, New: 535.00
Sample2 Changed: 4/1/2025 10:15:24 AM, Old:ecc_460, New:ecc_526
PMT Volts Changed: 4/1/2025 10:16:50 AM, Old:490, New:495
Emission PMT (V): Changed: 4/1/2025 10:16:51 AM, Old: 490, New: 495
Zero Mode Changed: 4/1/2025 10:16:51 AM, Old:ON, New:OFF
Sample2 Changed: 4/1/2025 10:17:11 AM, Old:ecc_526, New:ecc_526_05
PMT Volts Changed: 4/1/2025 10:19:28 AM, Old:495, New:500
Emission PMT (V): Changed: 4/1/2025 10:19:28 AM, Old: 495, New: 500
PMT Volts Changed: 4/1/2025 10:20:20 AM, Old:500, New:503
Emission PMT (V): Changed: 4/1/2025 10:20:20 AM, Old: 500, New: 503
PMT Volts Changed: 4/1/2025 10:20:56 AM, Old:503, New:500
Emission PMT (V): Changed: 4/1/2025 10:20:56 AM, Old: 503, New: 500
Sample2 Changed: 4/1/2025 10:45:38 AM, Old:ecc_526_05, New:ecc_526_04
Sample2 Changed: 4/1/2025 10:49:30 AM, Old:ecc_526_04, New:ecc_526_04_2
Sample2 Changed: 4/1/2025 11:13:17 AM, Old:ecc_526_04_2, New:ecc_526_03
Sample2 Changed: 4/1/2025 11:24:04 AM, Old:ecc_526_03, New:ecc_526_02
Sample2 Changed: 4/1/2025 11:34:59 AM, Old:ecc_526_02, New:ecc_526_01
Sample2 Changed: 4/1/2025 11:43:15 AM, Old:ecc_526_01, New:ecc_526_008
Sample2 Changed: 4/1/2025 11:54:05 AM, Old:ecc_526_008, New:ecc_526_006
Sample2 Changed: 4/1/2025 12:12:56 PM, Old:ecc_526_006, New:ecc_526_004
Sample2 Changed: 4/1/2025 12:30:33 PM, Old:ecc_526_004, New:ecc_526_002
Sample2 Changed: 4/1/2025 12:37:06 PM, Old:ecc_526_002, New:ecc_526_001
Sample2 Changed: 4/1/2025 12:39:13 PM, Old:ecc_526_001, New:500V
PMT Volts Changed: 4/1/2025 12:40:10 PM, Old:500, New:550
Emission PMT (V): Changed: 4/1/2025 12:40:10 PM, Old: 500, New: 550
Sample2 Changed: 4/1/2025 12:40:31 PM, Old:500V, New:550V
PMT Volts Changed: 4/1/2025 12:41:04 PM, Old:550, New:600
Emission PMT (V): Changed: 4/1/2025 12:41:04 PM, Old: 550, New: 600
Sample2 Changed: 4/1/2025 12:41:23 PM, Old:550V, New:600V
PMT Volts Changed: 4/1/2025 12:41:56 PM, Old:600, New:650
Emission PMT (V): Changed: 4/1/2025 12:41:56 PM, Old: 600, New: 650
Sample2 Changed: 4/1/2025 12:42:13 PM, Old:600V, New:650V
PMT Volts Changed: 4/1/2025 12:42:43 PM, Old:650, New:700
Emission PMT (V): Changed: 4/1/2025 12:42:43 PM, Old: 650, New: 700
Sample2 Changed: 4/1/2025 12:43:02 PM, Old:650V, New:700V
PMT Volts Changed: 4/1/2025 12:43:36 PM, Old:700, New:750
Emission PMT (V): Changed: 4/1/2025 12:43:36 PM, Old: 700, New: 750
Sample2 Changed: 4/1/2025 12:43:55 PM, Old:700V, New:750V
PMT Volts Changed: 4/1/2025 12:44:22 PM, Old:750, New:800
Emission PMT (V): Changed: 4/1/2025 12:44:22 PM, Old: 750, New: 800
Sample2 Changed: 4/1/2025 12:44:40 PM, Old:750V, New:800V
PMT Volts Changed: 4/1/2025 12:45:25 PM, Old:800, New:775
Emission PMT (V): Changed: 4/1/2025 12:45:25 PM, Old: 800, New: 775
Sample2 Changed: 4/1/2025 12:45:41 PM, Old:800V, New:775V
PMT Volts Changed: 4/1/2025 12:46:13 PM, Old:775, New:725
Emission PMT (V): Changed: 4/1/2025 12:46:13 PM, Old: 775, New: 725
Sample2 Changed: 4/1/2025 12:46:31 PM, Old:775V, New:725V
PMT Volts Changed: 4/1/2025 12:46:56 PM, Old:725, New:790
Emission PMT (V): Changed: 4/1/2025 12:46:56 PM, Old: 725, New: 790
Sample2 Changed: 4/1/2025 12:47:13 PM, Old:725V, New:790V
End Method Modifications

